Date and Time:                Fri Apr 13 12:22:48.444 2018
Software Version:             4.30.30034.0
Temperature (C):              -30
Model:                        DH334T-18U-03
Data Type:                    Counts
Acquisition Mode:             Accumulate
Trigger Mode:                 Internal
Exposure Time (secs):         2
Accumulate Cycle Time (secs): 2
Frequency (Hz):               0.5
Number of Accumulations:      10
Readout Mode:                 Full Vertical Binning
Horizontal binning:           1
Extended Dynamic Range:       off
Horizontally flipped:         true
Vertical Shift Speed (usecs): 6.5
Pixel Readout Rate (MHz):     0.05
Clock Amplitude:              Normal
Serial Number:                5999
Pre-Amplifier Gain:           1.000000
Intelligate:                  off
Insertion delay:              normal
Gain level:                   500
Integrate on chip:            off
PIV Mode:                     off
Gate Mode:                    Fire only
Gate Width (nsecs):           0
Gate Delay (nsecs):           0
Spurious Noise Filter Mode:   No Filter
Photon counted:               false
Data Averaging Filter Mode:   No Filter
SR750:
Serial Number:                SR-1311
Wavelength (nm):              624.89
Grating Groove Density (l/mm):1199.66
Grating Blaze:                500
Output Flipper Port:          Direct
Accessory Output Port 1:      Off
Accessory Output Port 2:      Off
Accessory Output Port 3:      Off
Accessory Input Port:         On



400	0
400.21982	7715.75
400.43967	7721
400.65948	7691.92
400.87933	7687.23
401.09915	7688.96
401.319	7694.07
401.53882	7713.44
401.75867	7746.75
401.97849	7786.7
402.19833	7825.15
402.41815	7852.94
402.638	7864.49
402.85782	7864.31
403.07767	7863.97
403.29749	7872.66
403.51733	7893.2
403.73715	7929.31
403.957	7995.09
404.17682	8099.22
404.39667	8207.32
404.61649	8255.89
404.83633	8231.13
405.05615	8191.88
405.276	8195.43
405.49582	8243.35
405.71567	8313.38
405.93549	8401.17
406.15533	8501.65
406.37518	8592.72
406.595	8671.34
406.81485	8761.35
407.03467	8869.54
407.25452	8973.25
407.47433	9047.51
407.69418	9081.47
407.914	9083.75
408.13385	9079.73
408.35367	9097.7
408.57352	9146.06
408.79333	9206.81
409.01318	9260.95
409.233	9308.83
409.45285	9360.43
409.67267	9419.25
409.89252	9484.18
410.11234	9553.22
410.33218	9621.69
410.552	9687.2
410.77185	9754.12
410.99167	9827.95
411.21152	9909.41
411.43134	9994.3
411.65118	10068.5
411.871	10084.8
412.09085	9952.18
412.3107	9600.38
412.53052	9089.73
412.75037	8604.94
412.97018	8293.22
413.19003	8147.95
413.40985	8079.72
413.6297	8033.06
413.84952	7998.55
414.06937	7975.71
414.28918	7964.59
414.50903	7965.45
414.72885	7977.38
414.9487	8003.07
415.16852	8045.51
415.38837	8094.7
415.60818	8127.67
415.82803	8136.47
416.04785	8142.48
416.2677	8162.8
416.48752	8187.44
416.70737	8211.04
416.92719	8247.87
417.14703	8303.79
417.36685	8370.32
417.5867	8438.61
417.80652	8496.73
418.02637	8537.95
418.24619	8574.5
418.46603	8624.03
418.68588	8689.16
418.9057	8750.49
419.12555	8777.06
419.34537	8757.85
419.56522	8717.04
419.78503	8684.82
420.00488	8669.22
420.2247	8669.01
420.44455	8690.31
420.66437	8732.14
420.88422	8770.92
421.10403	8768.6
421.32388	8701.21
421.5437	8590.56
421.76355	8492.46
421.98337	8442.4
422.20322	8433.12
422.42303	8439.36
422.64288	8439.21
422.8627	8423.19
423.08255	8396.9
423.30237	8365.07
423.52222	8320.48
423.74203	8262.17
423.96188	8208.01
424.1817	8175.09
424.40155	8165.83
424.62137	8179.27
424.84122	8209.98
425.06107	8244.11
425.28088	8270.31
425.50073	8281.89
425.72055	8281.17
425.9404	8289.32
426.16022	8341.49
426.38007	8457.98
426.59988	8589.79
426.81973	8638.08
427.03955	8575.21
427.2594	8476.36
427.47922	8409.29
427.69907	8376.22
427.91888	8357.01
428.13873	8343.42
428.35855	8340.57
428.5784	8359.46
428.79822	8403.48
429.01807	8463.1
429.23788	8527.6
429.45773	8594.25
429.67755	8664.67
429.8974	8740.72
430.11722	8822.76
430.33707	8910.26
430.55688	9000.08
430.77673	9075.48
430.99655	9107.76
431.2164	9084.38
431.43625	9028.51
431.65607	8982.85
431.87592	8973.9
432.09573	8997.9
432.31558	9037.84
432.5354	9084.04
432.75525	9132.05
432.97507	9171.74
433.19492	9203.02
433.41473	9252.38
433.63458	9353.62
433.8544	9502.88
434.07425	9619.75
434.29407	9624.79
434.51392	9572.3
434.73373	9562.17
434.95358	9606.61
435.1734	9699.21
435.39325	9889.28
435.61307	10159.1
435.83292	10314.4
436.05273	10202.9
436.27258	9953.5
436.4924	9785.52
436.71225	9744.72
436.93207	9757.8
437.15192	9772.46
437.37177	9771.92
437.59158	9744.42
437.81143	9690.1
438.03125	9623.66
438.2511	9555.58
438.47092	9480.19
438.69077	9383.92
438.91058	9253.91
439.13043	9079.13
439.35025	8881.41
439.5701	8718.83
439.78992	8622.47
440.00977	8578.69
440.22958	8567.96
440.44943	8580.16
440.66925	8616.49
440.8891	8691.87
441.10892	8813.5
441.32877	8946.56
441.54858	9028.18
441.76843	9031.84
441.98825	9000.18
442.2081	8993.59
442.42792	9019.62
442.64777	9049.79
442.86758	9076.63
443.08743	9107.52
443.30725	9144.97
443.5271	9180.13
443.74695	9194.53
443.96677	9194.84
444.18661	9209.1
444.40643	9249.86
444.62628	9306.71
444.8461	9345.73
445.06595	9343.29
445.28577	9328.41
445.50562	9340.15
445.72543	9370.3
445.94528	9386.75
446.1651	9374.71
446.38495	9342.35
446.60477	9315.8
446.82462	9315.76
447.04443	9333.78
447.26428	9356.69
447.4841	9390.23
447.70395	9435.66
447.92377	9480.85
448.14362	9524.24
448.36343	9572.94
448.58328	9616.54
448.8031	9635.27
449.02295	9633.12
449.24277	9630.56
449.46262	9634.52
449.68243	9640.33
449.90228	9648.17
450.12213	9661.29
450.34195	9670.1
450.5618	9630.28
450.78162	9465.21
451.00146	9144.78
451.22128	8770.7
451.44113	8492.35
451.66095	8351.59
451.8808	8289.91
452.10062	8251.62
452.32047	8226.01
452.54028	8217.75
452.76013	8223.31
452.97995	8244.26
453.1998	8291.48
453.41962	8358.48
453.63947	8416.36
453.85928	8457.14
454.07913	8505.98
454.29895	8567.48
454.5188	8617.33
454.73862	8651.14
454.95847	8673.64
455.17828	8670.92
455.39813	8640.9
455.61795	8606.31
455.8378	8588.73
456.05762	8596.26
456.27747	8620.49
456.49731	8642.98
456.71713	8658.25
456.93698	8675.29
457.1568	8692.05
457.37665	8702.46
457.59647	8730.19
457.81631	8774.73
458.03613	8768.03
458.25598	8683.18
458.4758	8599.75
458.69565	8584.77
458.91547	8600.18
459.13531	8593.01
459.35513	8584.28
459.57498	8588.47
459.7948	8559.03
460.01465	8497.23
460.23447	8472.08
460.45432	8497.96
460.67413	8513.94
460.89398	8489.66
461.1138	8459.68
461.33365	8455.93
461.55347	8470.94
461.77332	8483.36
461.99313	8481.21
462.21298	8470.95
462.43283	8485.54
462.65265	8560.12
462.8725	8671.94
463.09232	8735.83
463.31216	8699.56
463.53198	8606.3
463.75183	8529.12
463.97165	8497.34
464.1915	8510.24
464.41132	8559.22
464.63116	8619.83
464.85098	8670.01
465.07083	8710.29
465.29065	8740.43
465.5105	8754.59
465.73032	8770.07
465.95016	8800.65
466.16998	8812.61
466.38983	8780.24
466.60965	8742.33
466.8295	8736.07
467.04932	8745.95
467.26917	8759.11
467.48898	8779.29
467.70883	8791.99
467.92865	8806.4
468.1485	8842.99
468.36832	8858.19
468.58817	8836.34
468.80801	8817.87
469.02783	8788.44
469.24768	8741.21
469.4675	8722.51
469.68735	8728.89
469.90717	8727.8
470.12701	8724.33
470.34683	8721.44
470.56668	8712.98
470.7865	8709.35
471.00635	8713.28
471.22617	8718.51
471.44601	8723.52
471.66583	8726.23
471.88568	8730.91
472.1055	8735.52
472.32535	8726.56
472.54517	8709.33
472.76501	8695.42
472.98483	8680.36
473.20468	8658.49
473.4245	8634.04
473.64435	8616.5
473.86417	8598.79
474.08401	8569.57
474.30383	8538.21
474.52368	8514.44
474.7435	8506.92
474.96335	8525.96
475.1832	8564.93
475.40302	8604.49
475.62286	8629.17
475.84268	8642.16
476.06253	8667.67
476.28235	8725.04
476.5022	8804.84
476.72202	8881.66
476.94186	8942.52
477.16168	9000.82
477.38153	9075.95
477.60135	9158.82
477.8212	9218.6
478.04102	9250.73
478.26086	9283.87
478.48068	9334.16
478.70053	9387.98
478.92035	9419.48
479.1402	9422.25
479.36002	9416.95
479.57986	9435.37
479.79968	9489.59
480.01953	9551.45
480.23935	9601
480.4592	9654.09
480.67902	9717.06
480.89886	9768.3
481.11871	9788.98
481.33853	9790.13
481.55838	9802.64
481.7782	9845.67
481.99805	9912.76
482.21786	9977.6
482.43771	10007.6
482.65753	9988.25
482.87738	9926.75
483.0972	9797.93
483.31705	9510.24
483.53687	9020.8
483.75671	8474.52
483.97653	8087.56
484.19638	7918.04
484.4162	7881.36
484.63605	7893.89
484.85587	7916.81
485.07571	7963.23
485.29553	8114.15
485.51538	8485.42
485.7352	9100.89
485.95505	9716.01
486.17487	9898.25
486.39471	9492.55
486.61453	8831.76
486.83438	8317.95
487.0542	8056.42
487.27405	7953
487.4939	7908.85
487.71371	7877.77
487.93356	7853.69
488.15338	7843.94
488.37323	7848.14
488.59305	7860.09
488.8129	7877.09
489.03271	7899.67
489.25256	7926.09
489.47238	7950.98
489.69223	7971.78
489.91205	7985.03
490.1319	7982.3
490.35172	7967.79
490.57156	7967.16
490.79138	7996.33
491.01123	8029.09
491.23105	8031.63
491.4509	8017.9
491.67072	8024.37
491.89056	8047.27
492.11038	8056.68
492.33023	8061.06
492.55005	8097.08
492.7699	8161.15
492.98972	8202.91
493.20956	8186.82
493.42938	8124.31
493.64923	8058.83
493.86908	8020.5
494.0889	7990.45
494.30875	7943.66
494.52856	7897.7
494.74841	7879.46
494.96823	7874.06
495.18808	7860.4
495.4079	7861
495.62775	7897.67
495.84756	7934.66
496.06741	7918.98
496.28723	7857.6
496.50708	7806.14
496.7269	7790.15
496.94675	7787.26
497.16656	7779.84
497.38641	7771.54
497.60623	7756.9
497.82608	7721.97
498.0459	7677.23
498.26575	7652.12
498.48557	7648
498.70541	7636.79
498.92523	7617.96
499.14508	7628.7
499.3649	7680.09
499.58475	7734.43
499.80457	7764.15
500.02441	7782.9
500.24426	7804.18
500.46408	7824.97
500.68393	7863.21
500.90375	7941.04
501.1236	8017.27
501.34341	8023.98
501.56326	7982.18
501.78308	7964.99
502.00293	7955.35
502.22275	7908.4
502.4426	7886.5
502.66241	7938.3
502.88226	7998.97
503.10208	8013.48
503.32193	8014.2
503.54175	8028.29
503.7616	8038.23
503.98141	8043.43
504.20126	8056.94
504.42108	8066.57
504.64093	8069.15
504.86075	8088.74
505.0806	8115.79
505.30042	8117.33
505.52026	8107.46
505.74008	8107.94
505.95993	8101.72
506.17978	8092.64
506.3996	8107.42
506.61945	8128.27
506.83926	8135.22
507.05911	8149.21
507.27893	8163.96
507.49878	8165.82
507.7186	8191.27
507.93845	8229.8
508.15826	8209.57
508.37811	8147.47
508.59793	8113.82
508.81778	8104.57
509.0376	8092.01
509.25745	8074.7
509.47726	8060.02
509.69711	8060.9
509.91693	8066.98
510.13678	8058.39
510.3566	8056.84
510.57645	8077.53
510.79626	8097.03
511.01611	8121.47
511.23593	8178.31
511.45578	8251.26
511.6756	8304.26
511.89545	8342.1
512.1153	8395.97
512.33508	8468.39
512.55493	8536.33
512.77478	8590.41
512.99463	8637.31
513.21448	8674.45
513.43427	8690.32
513.65411	8696.27
513.87396	8714.68
514.09381	8754.83
514.3136	8810.93
514.53345	8846.54
514.7533	8845.28
514.97314	8840.65
515.19293	8848.57
515.41278	8868.2
515.63263	8914.38
515.85248	8985.41
516.07227	9050.09
516.29211	9076.56
516.51196	9052.38
516.73181	8995.3
516.9516	8940.55
517.17145	8910.56
517.3913	8905.88
517.61115	8914.32
517.83093	8919.54
518.05078	8913.76
518.27063	8906.58
518.49048	8910.59
518.71033	8921.29
518.93011	8924.81
519.14996	8904.99
519.36981	8815.84
519.58966	8588.74
519.80945	8223.26
520.0293	7834.29
520.24915	7549.73
520.46899	7398.78
520.68878	7333.76
520.90863	7303.93
521.12848	7288.47
521.34833	7288.43
521.56812	7301.25
521.78796	7310.9
522.00781	7305.36
522.22766	7293.79
522.44745	7294.15
522.6673	7311.36
522.88715	7332.15
523.10699	7336.36
523.32678	7322.77
523.54663	7317.31
523.76648	7340.55
523.98633	7382.43
524.20612	7421.35
524.42596	7445.99
524.64581	7455.63
524.86566	7460.74
525.08551	7476.57
525.3053	7505.92
525.52515	7536.12
525.745	7554.13
525.96484	7562.41
526.18463	7573.32
526.40448	7586.54
526.62433	7589.37
526.84418	7574.88
527.06396	7545.38
527.28381	7510.97
527.50366	7484.38
527.72351	7468.52
527.9433	7464.35
528.16315	7472.77
528.383	7474.62
528.60284	7456.91
528.82263	7434.61
529.04248	7420.51
529.26233	7409.47
529.48218	7396.88
529.70197	7389.9
529.92181	7393.21
530.14166	7397.04
530.36151	7390.74
530.5813	7377.78
530.80115	7372.17
531.021	7378.66
531.24084	7384.08
531.46069	7375.07
531.68048	7353.76
531.90033	7336.03
532.12018	7340.31
532.34003	7365.4
532.55981	7381.65
532.77966	7362.82
532.99951	7320.76
533.21936	7290.71
533.43915	7288.14
533.659	7297.8
533.87885	7300.54
534.09869	7296.26
534.31848	7298.9
534.53833	7314.88
534.75818	7333.16
534.97803	7341.15
535.19781	7350.63
535.41766	7387.95
535.63751	7449.92
535.85736	7497.35
536.07715	7498.88
536.297	7474.08
536.51685	7469.94
536.73669	7496.68
536.95648	7526.39
537.17633	7528.01
537.39618	7504.64
537.61603	7500.82
537.83588	7530.83
538.05566	7553.88
538.27551	7539.52
538.49536	7514.63
538.71521	7516.16
538.935	7530.77
539.15485	7525.75
539.37469	7498.57
539.59454	7471.13
539.81433	7456.48
540.03418	7445.35
540.25403	7427.33
540.47388	7410.37
540.69366	7404.61
540.91351	7400.07
541.13336	7381.7
541.35321	7358.48
541.573	7353.37
541.79285	7364.23
542.0127	7361.17
542.23254	7337.71
542.45233	7329.31
542.67218	7351.21
542.89203	7367.22
543.11188	7348.62
543.33167	7318.29
543.55151	7308.33
543.77136	7304.62
543.99121	7276.45
544.21106	7245.8
544.43085	7255.18
544.6507	7278.47
544.87054	7262.91
545.09039	7235.88
545.31018	7264.21
545.53003	7364.33
545.74988	7502.88
545.96973	7610.23
546.18951	7608.44
546.40936	7503.51
546.62921	7394.13
546.84906	7359.55
547.06885	7390.28
547.2887	7422.77
547.50854	7429.37
547.72839	7442.65
547.94818	7473.97
548.16803	7489.28
548.38788	7483.54
548.60773	7486.12
548.82751	7498.73
549.04736	7511.65
549.26721	7541.5
549.48706	7582.6
549.70685	7601.88
549.9267	7603.65
550.14655	7605.75
550.36639	7592.83
550.58624	7568.53
550.80603	7562.8
551.02588	7563.37
551.24573	7546.66
551.46558	7534.53
551.68536	7533.29
551.90521	7525.97
552.12506	7531.47
552.34491	7544.58
552.5647	7539.12
552.78455	7550.16
553.00439	7578.86
553.22424	7580.02
553.44403	7564.36
553.66388	7550.09
553.88373	7544.79
554.10358	7558.03
554.32336	7569.2
554.54321	7561.93
554.76306	7547.45
554.98291	7534.87
555.2027	7527.62
555.42255	7527.64
555.6424	7531.95
555.86224	7534.91
556.08203	7534.07
556.30188	7533.19
556.52173	7534.5
556.74158	7535.09
556.96143	7530.51
557.18121	7520.53
557.40106	7520.37
557.62091	7546.96
557.84076	7595.78
558.06055	7647.86
558.2804	7681.29
558.50024	7688.17
558.72009	7689.75
558.93988	7713.96
559.15973	7767.09
559.37958	7830.95
559.59943	7876.87
559.81921	7888.13
560.03906	7866.83
560.25891	7820.48
560.47876	7747.66
560.69855	7633.38
560.9184	7476.82
561.13824	7323.41
561.35809	7220.05
561.57788	7159.16
561.79773	7126.25
562.01758	7122.78
562.23743	7131.01
562.45728	7128.19
562.67706	7115.72
562.89691	7110.02
563.11676	7117.31
563.33661	7121.25
563.5564	7103.45
563.77625	7071.44
563.99609	7048.73
564.21594	7042.22
564.43573	7038.52
564.65558	7025.97
564.87543	7007.6
565.09528	6996.12
565.31506	7002.16
565.53491	7023.87
565.75476	7043.92
565.97461	7043.31
566.1944	7023.06
566.41425	7003.31
566.63409	7000.69
566.85394	7013.16
567.07373	7020.26
567.29358	7001.85
567.51343	6970.86
567.73328	6965.69
567.95306	6992.14
568.17291	7012.09
568.39276	7007.46
568.61261	7003.68
568.83246	7008.21
569.05225	7001.4
569.27209	6993.87
569.49194	7007.17
569.71179	7031.82
569.93158	7052.63
570.15143	7068.24
570.37128	7072.89
570.59113	7062.98
570.81091	7054.24
571.03076	7058.62
571.25061	7066.02
571.47046	7062.34
571.69025	7048.87
571.9101	7041.95
572.12994	7051.5
572.34979	7069.4
572.56958	7092.75
572.78943	7125.23
573.00928	7153.34
573.22913	7159.22
573.44891	7146.46
573.66876	7129.38
573.88861	7115.19
574.10846	7098.63
574.32825	7070.52
574.5481	7035.21
574.76794	7005.33
574.98779	6994.47
575.20764	7020.41
575.42743	7081.83
575.64728	7142.33
575.86713	7159.5
576.08698	7125.09
576.30676	7073.55
576.52661	7045.08
576.74646	7046.08
576.96631	7054.83
577.1861	7050.75
577.40594	7034.05
577.62579	7021.9
577.84564	7019.78
578.06543	7015.85
578.28528	7004.44
578.50513	6985.72
578.72498	6965.26
578.94476	6956.91
579.16461	6961.45
579.38446	6969.71
579.60431	6973.17
579.8241	6961.67
580.04395	6938.55
580.26379	6924.56
580.48364	6936.09
580.70343	6974.71
580.92328	7030.59
581.14313	7080.1
581.36298	7098.76
581.58282	7086.93
581.80261	7061.82
582.02246	7030.12
582.24231	6987.85
582.46216	6941.14
582.68195	6919.99
582.90179	6952.59
583.12164	7021.51
583.34149	7080.17
583.56128	7096.56
583.78113	7063.25
584.00098	7003.5
584.22083	6963.1
584.44061	6962.77
584.66046	6978.12
584.88031	6978.47
585.10016	6963.33
585.31995	6948.49
585.53979	6939.73
585.75964	6934.07
585.97949	6932.98
586.19928	6940.09
586.41913	6955.52
586.63898	6971.57
586.85883	6969.72
587.07861	6939.38
587.29846	6903.66
587.51831	6895.58
587.73816	6911.3
587.95801	6931.76
588.1778	6977.92
588.39764	7112.79
588.61749	7362.01
588.83734	7618.69
589.05713	7714.1
589.27698	7627.12
589.49683	7471.06
589.71667	7298.01
589.93646	7110
590.15631	6951.3
590.37616	6858.81
590.59601	6822.61
590.8158	6812.56
591.03564	6801.59
591.25549	6787.51
591.47534	6788.37
591.69513	6805.45
591.91498	6815.48
592.13483	6798.25
592.35468	6769.24
592.57446	6771.23
592.79431	6810.91
593.01416	6843.34
593.23401	6844.71
593.4538	6852.82
593.67365	6895.57
593.89349	6933.09
594.11334	6920.77
594.33319	6885.31
594.55298	6876.02
594.77283	6881.48
594.99268	6864.3
595.21252	6844.5
595.43231	6860.97
595.65216	6888.82
595.87201	6885.39
596.09186	6875.05
596.31165	6899.19
596.53149	6946.29
596.75134	6982.4
596.97119	6998.71
597.19098	7000.83
597.41083	6983.36
597.63068	6950.91
597.85052	6940.28
598.07031	6959.58
598.29016	6962.46
598.51001	6939.94
598.72986	6928.42
598.94965	6924.41
599.16949	6905.25
599.38934	6882.8
599.60919	6872.71
599.82898	6871.91
600.04883	6876.56
600.26868	6882.16
600.48853	6886.86
600.70837	6893.97
600.92816	6887.79
601.14801	6856.27
601.36786	6829.42
601.58771	6827.06
601.8075	6833.39
602.02734	6843.16
602.24719	6857.43
602.46704	6875.66
602.68683	6905.22
602.90668	6938.88
603.12653	6948.84
603.34637	6917.57
603.56616	6869.05
603.78601	6842.32
604.00586	6846.25
604.22571	6869.05
604.4455	6891.04
604.66534	6902.25
604.88519	6915.08
605.10504	6944.96
605.32483	6982.55
605.54468	6998.26
605.76453	6987.47
605.98438	6981.92
606.20422	7003.91
606.42401	7047.14
606.64386	7093.58
606.86371	7117.71
607.08356	7100.13
607.30334	7050.34
607.52319	6991.38
607.74304	6931.64
607.96289	6870.65
608.18268	6816.72
608.40253	6779.1
608.62238	6756.87
608.84222	6744.08
609.06201	6733.89
609.28186	6722.68
609.50171	6707.99
609.72156	6686.3
609.94135	6660.17
610.16119	6636.96
610.38104	6622.61
610.60089	6616.02
610.82068	6608.07
611.04053	6594.01
611.26038	6586.11
611.48022	6602.93
611.70001	6638.09
611.91986	6658.06
612.13971	6650.63
612.35956	6643.71
612.57941	6656.34
612.79919	6676.44
613.01904	6696.61
613.23889	6718.33
613.45874	6724.87
613.67853	6699.49
613.89838	6655.36
614.11823	6613.08
614.33807	6573.47
614.55786	6533.1
614.77771	6502.78
614.99756	6498.18
615.21741	6522.78
615.43719	6566.35
615.65704	6616.26
615.87689	6653.96
616.09674	6657.51
616.31653	6633.55
616.53638	6617.55
616.75623	6637.7
616.97607	6686.23
617.19586	6728.37
617.41571	6741.91
617.63556	6737.29
617.85541	6729
618.0752	6709
618.29504	6679.71
618.51489	6664.69
618.73474	6673.64
618.95459	6693.48
619.17438	6713.14
619.39423	6728.15
619.61407	6725.38
619.83392	6698.23
620.05371	6668.7
620.27356	6655.73
620.49341	6644.01
620.71326	6620.7
620.93304	6601.19
621.15289	6592.23
621.37274	6584.08
621.59259	6582.76
621.81238	6598.22
622.03223	6617.64
622.25208	6620.28
622.47192	6604.27
622.69171	6581.79
622.91156	6565.72
623.13141	6569.34
623.35126	6588.44
623.57104	6591.72
623.79089	6564.64
624.01074	6535.11
624.23059	6531.1
624.45038	6543.03
624.67023	6540.95
624.89008	6516.69
625.10992	6494.08
625.32977	6492.07
625.54956	6503.04
625.76941	6513.28
625.98926	6511.65
626.20911	6491.27
626.42889	6465.54
626.64874	6456.71
626.86859	6472.09
627.08844	6504
627.30823	6535.93
627.52808	6550.57
627.74792	6544.15
627.96777	6530.48
628.18756	6530.58
628.40741	6555.91
628.62726	6594.54
628.84711	6620.59
629.06689	6617.88
