Date and Time:                Fri Apr 13 12:45:49.841 2018
Software Version:             4.30.30034.0
Temperature (C):              -30
Model:                        DH334T-18U-03
Data Type:                    Counts
Acquisition Mode:             Accumulate
Trigger Mode:                 Internal
Exposure Time (secs):         2
Accumulate Cycle Time (secs): 2
Frequency (Hz):               0.5
Number of Accumulations:      10
Readout Mode:                 Full Vertical Binning
Horizontal binning:           1
Extended Dynamic Range:       off
Horizontally flipped:         true
Vertical Shift Speed (usecs): 6.5
Pixel Readout Rate (MHz):     0.05
Clock Amplitude:              Normal
Serial Number:                5999
Pre-Amplifier Gain:           1.000000
Intelligate:                  off
Insertion delay:              normal
Gain level:                   500
Integrate on chip:            off
PIV Mode:                     off
Gate Mode:                    Fire only
Gate Width (nsecs):           0
Gate Delay (nsecs):           0
Spurious Noise Filter Mode:   No Filter
Photon counted:               false
Data Averaging Filter Mode:   No Filter
SR750:
Serial Number:                SR-1311
Wavelength (nm):              624.97
Grating Groove Density (l/mm):1199.66
Grating Blaze:                500
Output Flipper Port:          Direct
Accessory Output Port 1:      Off
Accessory Output Port 2:      Off
Accessory Output Port 3:      Off
Accessory Input Port:         On



400	4.37281
400.05939	7730.83
400.11877	7778.78
400.17816	7854.12
400.23758	7904.47
400.29697	7907.42
400.35635	7873.97
400.41574	7833.79
400.47513	7802.33
400.53452	7777.26
400.5939	7762.82
400.65329	7770.19
400.71268	7796.2
400.77206	7819.88
400.83148	7821.27
400.89087	7797.23
400.95026	7759.6
401.00964	7725.65
401.06903	7711.89
401.12842	7727.67
401.18781	7766.73
401.24719	7809
401.30658	7835.66
401.36597	7839.96
401.42538	7823.91
401.48477	7796.29
401.54416	7778.09
401.60355	7795.65
401.66293	7853.51
401.72232	7918.67
401.78171	7952
401.84109	7945.13
401.90048	7910.2
401.95987	7868.64
402.01929	7855.27
402.07867	7886.7
402.13806	7934.53
402.19745	7965.93
402.25684	7983.73
402.31622	7998.4
402.37561	8004.05
402.435	8003.98
402.49438	8015.54
402.55377	8041.39
402.61319	8063.74
402.67258	8068.22
402.73196	8054.75
402.79135	8027.22
402.85074	7991.47
402.91013	7960.13
402.96951	7943.41
403.0289	7941.08
403.08829	7954.36
403.14767	7985
403.20709	8009.76
403.26648	7996.7
403.32587	7954.57
403.38525	7926.76
403.44464	7931.14
403.50403	7942.9
403.56342	7942.85
403.6228	7949.14
403.68219	7987.56
403.74158	8053.09
403.80099	8114.79
403.86038	8143.96
403.91977	8133.41
403.97916	8096.42
404.03854	8053.82
404.09793	8033.1
404.15732	8061.4
404.21671	8134.62
404.27609	8214.81
404.33548	8287.77
404.3949	8398.23
404.45428	8574.68
404.51367	8745.58
404.57306	8799.08
404.63245	8717.27
404.69183	8576.89
404.75122	8432.21
404.81061	8293.34
404.87	8180.75
404.92938	8128.21
404.9888	8147.89
405.04819	8207.5
405.10757	8250.39
405.16696	8247.89
405.22635	8221.25
405.28574	8209.66
405.34512	8234.2
405.40451	8291.49
405.4639	8358.88
405.52328	8408.86
405.5827	8435.01
405.64209	8447.77
405.70148	8442.39
405.76086	8412.22
405.82025	8385.09
405.87964	8395.46
405.93903	8444.65
405.99841	8520.94
406.0578	8612.84
406.11719	8694.69
406.17661	8753.79
406.23599	8809.57
406.29538	8854.97
406.35477	8856.2
406.41415	8817.8
406.47354	8763.7
406.53293	8706.93
406.59232	8680.82
406.6517	8717.19
406.71109	8800.25
406.77051	8884.26
406.8299	8924.03
406.88928	8908.81
406.94867	8901.35
407.00806	8969.3
407.06744	9080.1
407.12683	9161.73
407.18622	9199.71
407.24561	9199.49
407.30499	9148.99
407.36441	9090.41
407.4238	9118.54
407.48318	9245.22
407.54257	9362.89
407.60196	9364.66
407.66135	9247.05
407.72073	9114.81
407.78012	9088.56
407.83951	9181.03
407.8989	9286.02
407.95831	9293.45
408.0177	9196.17
408.07709	9082.39
408.13647	9032.88
408.19586	9052.3
408.25525	9102.54
408.31464	9156.19
408.37402	9204.17
408.43341	9240.12
408.4928	9244.29
408.55222	9210.42
408.6116	9192.12
408.67099	9240.74
408.73038	9315.87
408.78976	9339.96
408.84915	9310.31
408.90854	9307.64
408.96793	9372.67
409.02731	9428.02
409.0867	9397.5
409.14612	9335.92
409.20551	9354.42
409.26489	9443.75
409.32428	9493.95
409.38367	9489.6
409.44305	9514.12
409.50244	9584.42
409.56183	9626.03
409.62122	9612.47
409.6806	9613.92
409.74002	9669.47
409.79941	9718.09
409.8588	9710.79
409.91818	9686.88
409.97757	9691.63
410.03696	9716.13
410.09634	9746.01
410.15573	9780
410.21512	9795.58
410.27451	9782.47
410.33392	9774.14
410.39331	9778.13
410.4527	9766.78
410.51208	9758.47
410.57147	9783.79
410.63086	9814.43
410.69025	9839.67
410.74963	9895.83
410.80902	9951.13
410.86841	9952.39
410.92783	9960.74
410.98721	10024.4
411.0466	10070.3
411.10599	10066.4
411.16537	10071.2
411.22476	10098.3
411.28415	10114.9
411.34354	10115.6
411.40292	10112.9
411.46231	10124.4
411.52173	10166.7
411.58112	10217
411.6405	10243.7
411.69989	10263.5
411.75928	10305.9
411.81866	10364.9
411.87805	10428.1
411.93744	10490.1
411.99683	10524.1
412.05621	10502.7
412.11563	10432.1
412.17502	10338
412.23441	10253.3
412.29379	10187.7
412.35318	10072.3
412.41257	9817.42
412.47195	9446.4
412.53134	9057.17
412.59073	8715.42
412.65012	8456.13
412.70953	8293.59
412.76892	8208.32
412.82831	8162.49
412.8877	8126.62
412.94708	8096.89
413.00647	8095.13
413.06586	8142.36
413.12524	8232.36
413.18463	8326.2
413.24402	8372.55
413.30344	8347.92
413.36282	8273.86
413.42221	8189.34
413.4816	8123.95
413.54099	8091.52
413.60037	8087.87
413.65976	8096.69
413.71915	8102.59
413.77853	8098.08
413.83792	8089.02
413.89734	8089.24
413.95673	8097.43
414.01611	8093.99
414.0755	8069.84
414.13489	8042.15
414.19427	8033.17
414.25366	8048.49
414.31305	8079.26
414.37244	8109.46
414.43182	8124.92
414.49124	8128.31
414.55063	8130.76
414.61002	8130.82
414.6694	8126.08
414.72879	8125.42
414.78818	8128.74
414.84756	8121.25
414.90695	8097.33
414.96634	8070.53
415.02573	8060.17
415.08514	8075.87
415.14453	8111.31
415.20392	8151.48
415.26331	8184.85
415.32269	8204.76
415.38208	8212.6
415.44147	8224.91
415.50085	8259.09
415.56024	8318.51
415.61963	8388.88
415.67905	8429.46
415.73843	8402.59
415.79782	8326.25
415.85721	8249.38
415.9166	8198.29
415.97598	8180.12
416.03537	8193.78
416.09476	8227.4
416.15414	8265.15
416.21353	8293.07
416.27295	8308.34
416.33234	8320.83
416.39172	8334.97
416.45111	8340.22
416.5105	8323.34
416.56989	8285.03
416.62927	8243.03
416.68866	8218.23
416.74805	8217.6
416.80743	8234.45
416.86685	8263.76
416.92624	8308.37
416.98563	8370.73
417.04501	8443.56
417.1044	8504.81
417.16379	8526.31
417.22318	8500.25
417.28256	8448
417.34195	8397.19
417.40134	8372.45
417.46075	8395.25
417.52014	8460.22
417.57953	8537.85
417.63892	8614.58
417.6983	8689.22
417.75769	8733.79
417.81708	8712.94
417.87646	8644.09
417.93585	8590.91
417.99524	8588.87
418.05466	8614.02
418.11404	8633.15
418.17343	8646.08
418.23282	8660.2
418.29221	8668.25
418.35159	8671.96
418.41098	8682.21
418.47037	8703.28
418.52975	8743.43
418.58914	8787.43
418.64856	8794.44
418.70795	8769.59
418.76733	8759.92
418.82672	8798.66
418.88611	8892.05
418.9455	9018.02
419.00488	9115.71
419.06427	9121.54
419.12366	9041.38
419.18304	8946.43
419.24246	8889.9
419.30185	8869.11
419.36124	8859.17
419.42062	8842.49
419.48001	8809.7
419.5394	8763.17
419.59879	8716.37
419.65817	8677.88
419.71756	8655.62
419.77695	8667.65
419.83636	8719.69
419.89575	8783.9
419.95514	8819.14
420.01453	8809.51
420.07391	8773.35
420.1333	8735.95
420.19269	8706.96
420.25208	8683.85
420.31146	8667.89
420.37085	8673.77
420.43027	8717.52
420.48965	8790.79
420.54904	8855.6
420.60843	8879.79
420.66782	8876.7
420.7272	8888.07
420.78659	8934.36
420.84598	9005.79
420.90536	9071.56
420.96475	9087.14
421.02417	9037.02
421.08356	8971.05
421.14294	8962.22
421.20233	9027.24
421.26172	9090.65
421.32111	9045.92
421.38049	8880.25
421.43988	8693.06
421.49927	8573.75
421.55865	8533.57
421.61807	8539.33
421.67746	8549.5
421.73685	8541.39
421.79623	8525.05
421.85562	8514.67
421.91501	8509.47
421.9744	8507.12
422.03378	8512.03
422.09317	8526.1
422.15256	8542.78
422.21198	8554.96
422.27136	8563.67
422.33075	8574.19
422.39014	8584.16
422.44952	8581.9
422.50891	8561.67
422.5683	8536.68
422.62769	8529.54
422.68707	8544.68
422.74646	8558.41
422.80588	8546.97
422.86526	8515.55
422.92465	8487.21
422.98404	8473.83
423.04343	8472.84
423.10281	8475.35
423.1622	8466.99
423.22159	8443.07
423.28098	8423.41
423.34036	8430.48
423.39978	8459.64
423.45917	8486.08
423.51855	8492.29
423.57794	8475.15
423.63733	8435.4
423.69672	8380.61
423.7561	8329.95
423.81549	8295.24
423.87488	8271.5
423.93427	8254.09
423.99368	8246.32
424.05307	8251.23
424.11246	8265.96
424.17184	8281.68
424.23123	8287
424.29062	8272.05
424.35001	8235.1
424.40939	8191.86
424.46878	8166.96
424.52817	8170.52
424.58759	8192.18
424.64697	8218.87
424.70636	8246.99
424.76575	8270.47
424.82513	8279.26
424.88452	8280.6
424.94391	8294.25
425.0033	8326.2
425.06268	8359.4
425.12207	8373.17
425.18149	8368.65
425.24088	8373.82
425.30026	8418.34
425.35965	8493.02
425.41904	8542.7
425.47842	8515.43
425.53781	8420.95
425.5972	8323.31
425.65659	8275.29
425.71597	8282.75
425.77539	8326.96
425.83478	8384.55
425.89417	8424.23
425.95355	8425.64
426.01294	8401.53
426.07233	8374.21
426.13171	8351.45
426.1911	8335.16
426.25049	8327.38
426.30988	8328.97
426.36929	8344.75
426.42868	8383.69
426.48807	8460.86
426.54745	8623
426.60684	8938.69
426.66623	9365.32
426.72562	9656.42
426.785	9576.3
426.84439	9197.61
426.90378	8806.32
426.9632	8587.64
427.02258	8530.82
427.08197	8539.88
427.14136	8537.9
427.20074	8503.33
427.26013	8469.15
427.31952	8479.51
427.37891	8536.67
427.43829	8605.92
427.49768	8651.42
427.5571	8651.06
427.61649	8602.67
427.67587	8519.69
427.73526	8432.09
427.79465	8383.09
427.85403	8385.02
427.91342	8408.02
427.97281	8424.22
428.0322	8431.64
428.09158	8431.96
428.151	8417.36
428.21039	8381.69
428.26978	8335.98
428.32916	8309.45
428.38855	8327.56
428.44794	8385.37
428.50732	8447.56
428.56671	8478.46
428.6261	8473.23
428.68549	8455.28
428.7449	8451.42
428.80429	8480.13
428.86368	8547.49
428.92307	8632.26
428.98245	8690.37
429.04184	8695.66
429.10123	8667.61
429.16061	8644.77
429.22	8638.31
429.27939	8631.46
429.33881	8623.08
429.39819	8640.05
429.45758	8696.4
429.51697	8767.84
429.57635	8819.95
429.63574	8843.7
429.69513	8845.53
429.75452	8822.57
429.8139	8783.01
429.87329	8769.82
429.93271	8815.84
429.9921	8893.78
430.05148	8944.44
430.11087	8945.78
430.17026	8932.52
430.22964	8947.7
430.28903	9000.56
430.34842	9070.4
430.40781	9123.45
430.46719	9133.84
430.52661	9113.37
430.586	9113.29
430.64539	9174.17
430.70477	9277.38
430.76416	9363.48
430.82355	9393.67
430.88293	9380.3
430.94232	9351.6
431.00171	9299.42
431.0611	9236.57
431.12051	9237.45
431.1799	9306.35
431.23929	9358.48
431.29868	9357.25
431.35806	9313.24
431.41745	9224.13
431.47684	9108.49
431.53622	9025.23
431.59561	9019.84
431.655	9082.85
431.71442	9163.9
431.7738	9204.33
431.83319	9169.39
431.89258	9080.43
431.95197	9007.34
432.01135	9000.08
432.07074	9051.58
432.13013	9139.73
432.18951	9240.05
432.2489	9296.59
432.30832	9267.37
432.36771	9186.34
432.42709	9122.32
432.48648	9111.66
432.54587	9157.53
432.60526	9234.92
432.66464	9282.21
432.72403	9266.3
432.78342	9238.92
432.8428	9252.84
432.90222	9297.8
432.96161	9357.33
433.021	9407.88
433.08038	9391.32
433.13977	9303.54
433.19916	9223.63
433.25854	9202.48
433.31793	9223.8
433.37732	9261.75
433.43671	9298.01
433.49612	9320.62
433.55551	9338.53
433.6149	9368.6
433.67429	9416.82
433.73367	9477.4
433.79306	9534.31
433.85245	9589.39
433.91183	9690.02
433.97122	9874.43
434.03061	10091
434.09003	10218.5
434.14941	10173.1
434.2088	9984.41
434.26819	9761.15
434.32758	9602.91
434.38696	9549.85
434.44635	9582.39
434.50574	9617.28
434.56512	9571.59
434.62451	9476.69
434.68393	9452.71
434.74332	9583.64
434.8027	9815.25
434.86209	9971.62
434.92148	9951.5
434.98087	9845.42
435.04025	9810.37
435.09964	9904.48
435.15903	10001.8
435.21841	9932.13
435.27783	9710.55
435.33722	9538.95
435.39661	9570.72
435.45599	9740.64
435.51538	9863.29
435.57477	9889
435.63416	10005.2
435.69354	10440
435.75293	11135.4
435.81232	11656.7
435.87173	11594.7
435.93112	11049.8
435.99051	10473.8
436.0499	10111.6
436.10928	9900.16
436.16867	9778.82
436.22806	9777.3
436.28745	9854.33
436.34683	9885.4
436.40622	9825.42
436.46564	9761.24
436.52502	9785.35
436.58441	9874.62
436.6438	9924.44
436.70319	9910.68
436.76257	9945
436.82196	10053.1
436.88135	10067.1
436.94073	9926.18
437.00012	9822.12
437.05954	9857.01
437.11893	9901.02
437.17831	9892.41
437.2377	9930.24
437.29709	10036.7
437.35648	10106.1
437.41586	10092.6
437.47525	10033.6
437.53464	9948.65
437.59402	9860.69
437.65344	9819.68
437.71283	9844.98
437.77222	9902.4
437.8316	9950.28
437.89099	9969.27
437.95038	9945.46
438.00977	9860.59
438.06915	9720.62
438.12854	9578.8
438.18793	9507.51
438.24734	9540.35
438.30673	9641.13
438.36612	9744.05
438.42551	9812.74
438.48489	9825.7
438.54428	9762.03
438.60367	9639.41
438.66306	9503.72
438.72244	9389.88
438.78183	9313.37
438.84125	9280.71
438.90063	9304.49
438.96002	9388.31
439.01941	9494.99
439.0788	9563.38
439.13818	9559.61
439.19757	9470.74
439.25696	9279.54
439.31635	9004.54
439.37573	8728.73
439.43515	8546.18
439.49454	8501.57
439.55392	8580.22
439.61331	8718.55
439.6727	8827.41
439.73209	8844.89
439.79147	8772.03
439.85086	8656.34
439.91025	8555.95
439.96964	8510.24
440.02905	8528.37
440.08844	8595.96
440.14783	8675.38
440.20721	8713.36
440.2666	8679.9
440.32599	8599.71
440.38538	8531.92
440.44476	8522.01
440.50415	8576.15
440.56354	8664.99
440.62296	8750.25
440.68234	8804.13
440.74173	8801.84
440.80112	8733.78
440.8605	8640.49
440.91989	8587
440.97928	8606.28
441.03867	8694.99
441.09805	8829.02
441.15744	8973.26
441.21686	9096.41
441.27625	9174.54
441.33563	9211.85
441.39502	9240.15
441.45441	9252.48
441.51379	9240.86
441.57318	9269.53
441.63257	9365.5
441.69196	9436.83
441.75134	9388.78
441.81076	9233.58
441.87015	9058.32
441.92953	8936.37
441.98892	8880.52
442.04831	8866.93
442.1077	8886.02
442.16708	8945.38
442.22647	9028.23
442.28586	9083.84
442.34525	9086.33
442.40466	9089.07
442.46405	9170.52
442.52344	9310.43
442.58282	9379.64
442.64221	9294.31
442.7016	9120.64
442.76099	8991.56
442.82037	8981.84
442.87976	9082.51
442.93915	9242.42
442.99857	9405.22
443.05795	9512.21
443.11734	9500.14
443.17673	9352.37
443.23611	9155.29
443.2955	9021.53
443.35489	8975.04
443.41428	8994.05
443.47366	9108.63
443.53305	9329.21
443.59247	9507.21
443.65186	9485.25
443.71124	9326.9
443.77063	9201.44
443.83002	9173.21
443.8894	9212.53
443.94879	9283.54
444.00818	9360.99
444.06757	9395.71
444.12695	9353.14
444.18637	9295.36
444.24576	9322.72
444.30515	9430.02
444.36453	9505.73
444.42392	9471.34
444.48331	9355.51
444.54269	9247.97
444.60208	9244.87
444.66147	9397.67
444.72086	9638.47
444.78027	9795.44
444.83966	9753.05
444.89905	9567.88
444.95844	9389.09
445.01782	9331.63
445.07721	9432.62
445.1366	9614.18
445.19598	9691.18
445.25537	9545.33
445.31476	9280.94
445.37418	9117.3
445.43356	9190.39
445.49295	9468.75
445.55234	9755.77
445.61172	9830.14
445.67111	9660.55
445.7305	9413.99
445.78989	9275.51
445.84927	9343.9
445.90866	9580.1
445.96808	9770.43
446.02747	9719.19
446.08685	9487.58
446.14624	9317.85
446.20563	9375.31
446.26501	9600.42
446.3244	9762.06
446.38379	9681.14
446.44318	9425.25
446.50256	9248.4
446.56198	9337.84
446.62137	9616.27
446.68076	9776.78
446.74014	9630.74
446.79953	9349.36
446.85892	9238.2
446.9183	9413.17
446.97769	9711.91
447.03708	9837.31
447.09647	9661.45
447.15588	9375.13
447.21527	9264.32
447.27466	9407.14
447.33405	9611.11
447.39343	9643.31
447.45282	9519.87
447.51221	9449.94
447.57159	9532.7
447.63098	9663.4
447.69037	9711.67
447.74979	9683.49
447.80917	9679.17
447.86856	9730.03
447.92795	9734.31
447.98734	9608.72
448.04672	9459.47
448.10611	9473.86
448.1655	9643.61
448.22488	9740.99
448.28427	9641.71
448.34369	9517.14
448.40308	9575.73
448.46246	9748.52
448.52185	9808.23
448.58124	9729.78
448.64063	9703.9
448.70001	9800.71
448.7594	9873.02
448.81879	9833.91
448.87817	9792.04
448.93759	9828.94
448.99698	9845.25
449.05637	9751.79
449.11575	9655.98
449.17514	9698.92
449.23453	9816.16
449.29391	9844.09
449.3533	9786.53
449.41269	9767.63
449.47208	9792.11
449.53149	9780.8
449.59088	9757.57
449.65027	9790.25
449.70966	9843.9
449.76904	9852.31
449.82843	9830.17
449.88782	9816.98
449.9472	9807.75
450.00659	9808.09
450.06598	9850.36
450.1254	9902.76
450.18478	9903.49
450.24417	9871.25
450.30356	9853.02
450.36295	9855.73
450.42233	9869.89
450.48172	9881.41
450.54111	9886.79
450.60049	9894.94
450.65988	9891.94
450.7193	9847.87
450.77869	9767.04
450.83807	9692.83
450.89746	9632.19
450.95685	9512.99
451.01624	9275.09
451.07562	8968.33
451.13501	8707.18
451.1944	8561.53
451.25378	8516.41
451.3132	8504.01
451.37259	8466.07
451.43198	8402.38
451.49136	8355.05
451.55075	8352.21
451.61014	8385.45
451.66953	8431.79
451.72891	8479.15
451.7883	8523.27
451.84769	8545.69
451.9071	8520.18
451.96649	8449.32
452.02588	8365.56
452.08527	8295.9
452.14465	8250.4
452.20404	8232.67
452.26343	8237.69
452.32281	8246.44
452.3822	8244.27
452.44159	8243.44
452.50101	8266.76
452.56039	8308.12
452.61978	8338.76
452.67917	8351
452.73856	8359.56
452.79794	8364.86
452.85733	8355.82
452.91672	8338.65
452.9761	8330.75
453.03549	8334.88
453.09491	8336.17
453.1543	8326.63
453.21368	8324.56
453.27307	8358.88
453.33246	8433.58
453.39185	8520.25
453.45123	8589.24
453.51062	8632.92
453.57001	8657.72
453.62939	8672.41
453.68881	8676.44
453.7482	8649.29
453.80759	8573.88
453.86697	8471.69
453.92636	8392.39
453.98575	8371.28
454.04514	8408.81
454.10452	8485.32
454.16391	8585.11
454.2233	8696.68
454.28271	8791.28
454.3421	8830.6
454.40149	8804.72
454.46088	8737.07
454.52026	8662.71
454.57965	8615.88
454.63904	8609.06
454.69843	8620.72
454.75781	8630.94
454.8172	8660.44
454.87662	8746.65
454.936	8879.82
454.99539	8981.53
455.05478	8970.46
455.11417	8856.44
455.17355	8733.66
455.23294	8676.85
455.29233	8690.34
455.35172	8727.26
455.4111	8739.06
455.47052	8726.58
455.52991	8721.65
455.58929	8720.58
455.64868	8698.51
455.70807	8670.25
455.76746	8661.8
455.82684	8654.68
455.88623	8625.43
455.94562	8593.48
456.005	8591.71
456.06442	8629.63
456.12381	8701.14
456.1832	8793.64
456.24258	8871.47
456.30197	8880.74
456.36136	8806.98
456.42075	8710.28
456.48013	8663.27
456.53952	8680.07
456.59891	8738.87
456.65833	8819.37
456.71771	8872.7
456.7771	8832.39
456.83649	8707.62
456.89587	8587.86
456.95526	8544.14
457.01465	8600.81
457.07404	8760.97
457.13342	8971.33
457.19281	9103.94
457.25223	9063.72
457.31161	8893.32
457.371	8712.78
457.43039	8601.89
457.48978	8566.01
457.54916	8573.84
457.60855	8605.73
457.66794	8666.97
457.72733	8767.57
457.78671	8907.85
457.84613	9075.49
457.90552	9240.42
457.9649	9362.23
458.02429	9396.77
458.08368	9306.69
458.14307	9105.83
458.20245	8876.36
458.26184	8706.44
458.32123	8623.07
458.38062	8585.71
458.44003	8538.88
458.49942	8482.87
458.55881	8468.23
458.61819	8523.81
458.67758	8624
458.73697	8716.3
458.79636	8774
458.85574	8820.23
458.91513	8877.44
458.97452	8913.23
459.03394	8870.84
459.09332	8741.31
459.15271	8585.33
459.2121	8480.05
459.27148	8460.57
459.33087	8514.82
459.39026	8608.82
459.44965	8701.57
459.50903	8757.88
459.56842	8780.14
459.62784	8812.2
459.68723	8869.28
459.74661	8892.68
459.806	8831.02
459.86539	8705.75
459.92477	8553.12
459.98416	8398.36
460.04355	8283.74
460.10294	8245.16
460.16232	8280.77
460.22174	8363.1
460.28113	8454.99
460.34052	8531.21
460.3999	8600.65
460.45929	8679.32
460.51868	8747.09
460.57806	8768.63
460.63745	8740.47
460.69684	8685.59
460.75623	8620.58
460.81564	8547.46
460.87503	8473.88
460.93442	8425.04
460.9938	8418.85
461.05319	8445.21
461.11258	8481.11
461.17197	8508.5
461.23135	8520.75
461.29074	8522.27
461.35016	8514.42
461.40955	8491.56
461.46893	8463.47
461.52832	8460.26
461.58771	8500.09
461.64709	8563.33
461.70648	8599.12
461.76587	8568.36
461.82526	8504.26
