Date and Time:                Fri Apr 13 12:29:58.371 2018
Software Version:             4.30.30034.0
Temperature (C):              -30
Model:                        DH334T-18U-03
Data Type:                    Counts
Acquisition Mode:             Accumulate
Trigger Mode:                 Internal
Exposure Time (secs):         0.5
Accumulate Cycle Time (secs): 0.5
Frequency (Hz):               2
Number of Accumulations:      1
Readout Mode:                 Full Vertical Binning
Horizontal binning:           1
Extended Dynamic Range:       off
Horizontally flipped:         true
Vertical Shift Speed (usecs): 6.5
Pixel Readout Rate (MHz):     0.05
Clock Amplitude:              Normal
Serial Number:                5999
Pre-Amplifier Gain:           1.000000
Intelligate:                  off
Insertion delay:              normal
Gain level:                   500
Integrate on chip:            off
PIV Mode:                     off
Gate Mode:                    Fire only
Gate Width (nsecs):           0
Gate Delay (nsecs):           0
Spurious Noise Filter Mode:   No Filter
Photon counted:               false
Data Averaging Filter Mode:   No Filter
SR750:
Serial Number:                SR-1311
Wavelength (nm):              459.992
Grating Groove Density (l/mm):1199.66
Grating Blaze:                500
Output Flipper Port:          Direct
Accessory Output Port 1:      Off
Accessory Output Port 2:      Off
Accessory Output Port 3:      Off
Accessory Input Port:         On



400	1.20307
400.01584	587.121
400.03168	587.432
400.04752	587.273
400.06335	588.29
400.07919	591.706
400.09503	593.183
400.11087	591.396
400.12671	590.194
400.14255	591.635
400.15839	594.507
400.17422	591.366
400.19003	588.262
400.20587	593.65
400.22171	599.876
400.23755	599.433
400.25339	600.278
400.26923	606.266
400.28506	604.521
400.3009	596.662
400.31674	592.438
400.33258	591.178
400.34842	587.851
400.36426	585.831
400.3801	588.953
400.39594	588.934
400.41177	589.187
400.42761	592.529
400.44345	589.633
400.45929	582.808
400.47513	580.268
400.49097	579.704
400.50681	578.065
400.52264	577.438
400.53848	583.568
400.55432	591.177
400.57016	590.186
400.58597	589.289
400.60181	595.42
400.61765	599.065
400.63348	597.542
400.64932	592.818
400.66516	591.297
400.681	591.395
400.69684	587.417
400.71268	587.176
400.72852	589.074
400.74435	590.239
400.76019	595.573
400.77603	592.977
400.79187	591.378
400.80771	597.862
400.82355	604.661
400.83939	604.5
400.85522	602.81
400.87106	601.188
400.8869	598.945
400.90274	598.69
400.91858	593.886
400.93442	584.902
400.95026	580.942
400.96609	582.364
400.9819	584.374
400.99774	586.906
401.01358	597.7
401.02942	607.618
401.04526	599.019
401.0611	589.456
401.07693	590.862
401.09277	594.818
401.10861	597.264
401.12445	596.922
401.14029	597.248
401.15613	599.524
401.17197	603.365
401.18781	608.663
401.20364	611.848
401.21948	608.333
401.23532	599.334
401.25116	592.593
401.267	594.529
401.28284	598.329
401.29868	592.655
401.31451	588.599
401.33035	592.616
401.34619	592.286
401.36203	590.367
401.37784	590.686
401.39368	592.56
401.40952	595.202
401.42535	594.535
401.44119	590.12
401.45703	590.058
401.47287	589.781
401.48871	584.977
401.50455	586.369
401.52039	590.834
401.53622	590.492
401.55206	589.748
401.5679	584.726
401.58374	581.62
401.59958	587.898
401.61542	594.79
401.63126	596.27
401.64709	596.864
401.66293	600.959
401.67877	605.015
401.69461	608.07
401.71045	608.691
401.72629	607.34
401.74213	606.253
401.75797	604.294
401.77377	606.677
401.78961	606.352
401.80545	605.109
401.82129	602.685
401.83713	598.658
401.85297	599.708
401.8688	602.781
401.88464	603.086
401.90048	601.061
401.91632	596.629
401.93216	589.609
401.948	588.857
401.96384	596.495
401.97968	604.172
401.99551	606.794
402.01135	604.2
402.02719	597.638
402.04303	590.47
402.05887	586.921
402.07471	593.35
402.09055	597.938
402.10638	595.453
402.12222	597.439
402.13806	601.12
402.1539	601.787
402.16971	602.795
402.18555	603.424
402.20139	599.205
402.21722	594.247
402.23306	593.46
402.2489	601.374
402.26474	606.321
402.28058	597.032
402.29642	591.733
402.31226	594.454
402.32809	598.317
402.34393	592.775
402.35977	586.97
402.37561	590.423
402.39145	594.646
402.40729	594.436
402.42313	596.454
402.43896	603.367
402.4548	600.411
402.47064	592.441
402.48648	585.535
402.50232	582.717
402.51816	585.4
402.534	589.205
402.54984	595.737
402.56564	602.372
402.58148	615.327
402.59732	621.794
402.61316	610.038
402.629	598.288
402.64484	596.776
402.66068	602.039
402.67651	603.958
402.69235	598.468
402.70819	595.498
402.72403	601
402.73987	606.053
402.75571	607.696
402.77155	605.728
402.78738	602.312
402.80322	603.295
402.81906	601.937
402.8349	596.928
402.85074	589.811
402.86658	584.155
402.88242	581.505
402.89825	581.071
402.91409	579.5
402.92993	580.247
402.94577	590.747
402.96158	602.437
402.97742	603.292
402.99326	596.337
403.00909	594.965
403.02493	593.171
403.04077	589.095
403.05661	583.432
403.07245	588.202
403.08829	595.691
403.10413	594.231
403.11996	594.197
403.1358	595.192
403.15164	596.622
403.16748	599.496
403.18332	599.829
403.19916	601.006
403.215	607.209
403.23083	610.651
403.24667	608.324
403.26251	603.179
403.27835	594.228
403.29419	582.841
403.31003	577.835
403.32587	582.223
403.34171	586.045
403.35751	586.287
403.37335	590.63
403.38919	600.98
403.40503	605.938
403.42087	602.352
403.43671	596.359
403.45255	593.416
403.46838	595.229
403.48422	600.725
403.50006	603.29
403.5159	599.757
403.53174	594.353
403.54758	592.559
403.56342	590.909
403.57925	589.364
403.59509	587.818
403.61093	587.873
403.62677	594.32
403.64261	598.596
403.65845	596.187
403.67429	597.083
403.69012	600.317
403.70596	598.886
403.7218	595.387
403.73764	594.444
403.75345	599.07
403.76929	603.421
403.78513	594.119
403.80096	592.93
403.8168	598.193
403.83264	603.908
403.84848	604.47
403.86432	599.287
403.88016	595.88
403.896	595.746
403.91183	593.272
403.92767	589.413
403.94351	588.246
403.95935	589.997
403.97519	591.935
403.99103	596.743
404.00687	595.441
404.02271	588.359
404.03854	588.829
404.05438	590.197
404.07022	593.008
404.08606	594.753
404.1019	593.063
404.11774	593.5
404.13358	591.831
404.14938	590.955
404.16522	599.102
404.18106	604.896
404.1969	602.023
404.21274	597.787
404.22858	596.715
404.24442	598.653
404.26025	598.829
404.27609	597.68
404.29193	604.662
404.30777	609.54
404.32361	603.728
404.33945	598.678
404.35529	596.588
404.37112	597.059
404.38696	598.686
404.4028	598.841
404.41864	599.905
404.43448	601.55
404.45032	603.47
404.46616	609.203
404.48199	615.754
404.49783	614.984
404.51367	616.463
404.52951	619.011
404.54532	615.811
404.56116	617.443
404.577	621.029
404.59283	617.924
404.60867	612.862
404.62451	612.239
404.64035	614.735
404.65619	615.306
404.67203	611.402
404.68787	608.494
404.7037	611.078
404.71954	614.097
404.73538	610.317
404.75122	605.7
404.76706	604.3
404.7829	602.133
404.79874	598.116
404.81458	596.131
404.83041	598.018
404.84625	599.209
404.86209	595.677
404.87793	593.695
404.89377	595.053
404.90961	594.802
404.92545	591.898
404.94125	589.699
404.95709	589.17
404.97293	589.594
404.98877	590.07
405.00461	590.146
405.02045	590.269
405.03629	596.566
405.05212	609.873
405.06796	617.922
405.0838	622.327
405.09964	620.052
405.11548	611.324
405.13132	606.227
405.14716	607.6
405.16299	610.446
405.17883	609.582
405.19467	604.715
405.21051	602.773
405.22635	602.044
405.24219	600.866
405.25803	605.182
405.27386	608.128
405.2897	603.656
405.30554	600.283
405.32138	601.849
405.33719	604.001
405.35303	604.857
405.36887	609.199
405.3847	615.691
405.40054	614.486
405.41638	603.523
405.43222	598.391
405.44806	601.002
405.4639	607.98
405.47974	614.154
405.49557	613.018
405.51141	610.35
405.52725	611.347
405.54309	607.365
405.55893	600.187
405.57477	597.13
405.59061	601.263
405.60645	606.127
405.62228	605.458
405.63812	601.861
405.65396	601.191
405.6698	604.392
405.68564	606.91
405.70148	607.984
405.71732	609.439
405.73312	609.414
405.74896	606.69
405.7648	604.176
405.78064	604.43
405.79648	602.362
405.81232	597.393
405.82816	593.989
405.84399	597.805
405.85983	605.189
405.87567	610.298
405.89151	611.654
405.90735	610.508
405.92319	608.596
405.93903	605.024
405.95486	599.076
405.9707	599.37
405.98654	603.135
406.00238	600.39
406.01822	593.948
406.03406	594.299
406.0499	597.326
406.06573	600.655
406.08157	608.995
406.09741	612.198
406.11325	612.302
406.12906	616.535
406.1449	618.586
406.16074	616.168
406.17657	612.891
406.19241	614.966
406.20825	620.145
406.22409	620.474
406.23993	617.472
406.25577	617.879
406.27161	619.952
406.28745	619.664
406.30328	619.633
406.31912	618.557
406.33496	613.845
406.3508	609.95
406.36664	607.266
406.38248	603.836
406.39832	601.448
406.41415	601.86
406.42999	608.789
406.44583	618.981
406.46167	620.302
406.47751	617.66
406.49335	617.463
406.50919	613.126
406.52499	608.502
406.54083	605.644
406.55667	606.223
406.57251	608.957
406.58835	607.227
406.60419	603.667
406.62003	607.263
406.63586	611.551
406.6517	607.324
406.66754	601.371
406.68338	599.628
406.69922	602.118
406.71506	605.289
406.7309	608.453
406.74673	606.165
406.76257	607.471
406.77841	614.859
406.79425	620.779
406.81009	625.959
406.82593	629.127
406.84177	632.136
406.8576	635.91
406.87344	633.849
406.88928	630.21
406.90512	626.933
406.92093	624.383
406.93677	620.72
406.95261	614.298
406.96844	611.497
406.98428	613.657
407.00012	618.29
407.01596	621.504
407.0318	621.845
407.04764	629.127
407.06348	641.355
407.07932	648.91
407.09515	642.181
407.11099	631.431
407.12683	624.843
407.14267	624.634
407.15851	626.342
407.17435	623.303
407.19019	619.891
407.20602	621.18
407.22186	622.906
407.2377	626.339
407.25354	633.551
407.26938	633.591
407.28522	624.662
407.30106	616.672
407.31686	605.924
407.3327	596.091
407.34854	591.309
407.36438	591.172
407.38022	598.178
407.39606	606.681
407.4119	612.952
407.42773	612.928
407.44357	615.037
407.45941	619.134
407.47525	619.692
407.49109	625.45
407.50693	628.873
407.52277	626.798
407.5386	622.162
407.55444	626.636
407.57028	629.522
407.58612	627.677
407.60196	630.365
407.6178	630.303
407.63364	624.15
407.64948	623.998
407.66531	628.065
407.68115	626.413
407.69699	619.575
407.7128	615.29
407.72864	613.678
407.74448	614.397
407.76031	610.53
407.77615	604.169
407.79199	607.724
407.80783	617.698
407.82367	625.376
407.83951	629.876
407.85535	632.247
407.87119	630.791
407.88702	630.37
407.90286	632.833
407.9187	635.804
407.93454	640.754
407.95038	649.626
407.96622	653.548
407.98206	650.154
407.99789	642.203
408.01373	624.925
408.02957	615.06
408.04541	610.955
408.06125	607.946
408.07709	612.393
408.09293	621.445
408.10873	626.693
408.12457	626.093
408.14041	623.317
408.15625	621.77
408.17209	628.384
408.18793	640.023
408.20377	645.622
408.2196	641.887
408.23544	633.327
408.25128	623.723
408.26712	620.648
408.28296	618.242
408.2988	612.856
408.31464	612.203
408.33047	611.182
408.34631	607.344
408.36215	608.198
408.37799	610.894
408.39383	611.553
408.40967	616.726
408.42551	623.922
408.44135	626.923
408.45718	625.653
408.47302	621.411
408.48886	623.624
408.50467	636.198
408.52051	644.651
408.53635	638.846
408.55219	626.326
408.56802	614.955
408.58386	609.132
408.5997	607.032
408.61554	607.387
408.63138	615.934
408.64722	626.083
408.66306	627.257
408.67889	627.547
408.69473	636.129
408.71057	638.987
408.72641	631.634
408.74225	622.864
408.75809	620.499
408.77393	625.027
408.78976	625.433
408.8056	615.741
408.82144	612.676
408.83728	614.058
408.85312	615.886
408.86896	610.935
408.8848	610.705
408.9006	615.25
408.91644	613.518
408.93228	614.423
408.94812	621.234
408.96396	625.336
408.9798	626.31
408.99564	626.784
409.01147	623.457
409.02731	619.749
409.04315	620.552
409.05899	628.588
409.07483	634.928
409.09067	629.451
409.10651	621.425
409.12234	621.484
409.13818	624.958
409.15402	626.507
409.16986	621.199
409.1857	619.925
409.20154	624.85
409.21738	625.997
409.23322	628.022
409.24905	633.989
409.26489	637.624
409.28073	633.947
409.29654	630.663
409.31238	634.414
409.32822	632.499
409.34406	631.003
409.35989	633.292
409.37573	633.156
409.39157	628.321
409.40741	621.969
409.42325	620.005
409.43909	620.783
409.45493	617.224
409.47076	610.225
409.4866	608.42
409.50244	616.137
409.51828	629.262
409.53412	639.041
409.54996	643.978
409.5658	650.035
409.58163	651.487
409.59747	644.608
409.61331	641.165
409.62915	639.93
409.64499	641.271
409.66083	638.716
409.67667	634.368
409.69247	637.387
409.70831	638.523
409.72415	631.543
409.73999	630.924
409.75583	638.826
409.77167	647.467
409.78751	651.989
409.80334	650.082
409.81918	647.262
409.83502	647.621
409.85086	646.075
409.8667	641.555
409.88254	636.295
409.89838	626.466
409.91422	618.461
409.93005	620.028
409.94589	628.163
409.96173	635.437
409.97757	640.756
409.99341	643.214
410.00925	637.561
410.02509	631.245
410.04092	635.202
410.05676	642.194
410.0726	639.808
410.08841	630.088
410.10425	626.34
410.12009	625.099
410.13593	625.275
410.15176	630.773
410.1676	636.229
410.18344	637.418
410.19928	631.448
410.21512	622.312
410.23096	619.229
410.2468	619.196
410.26263	617.066
410.27847	613.105
410.29431	607.735
410.31015	602.409
410.32599	598.002
410.34183	598.961
410.35767	602.082
410.3735	610.367
410.38934	621.53
410.40518	635.227
410.42102	646.842
410.43686	648.633
410.4527	637.663
410.46854	627.691
410.48434	625.017
410.50018	626.379
410.51602	626.328
410.53186	630.865
410.5477	636.335
410.56354	642.694
410.57938	657.221
410.59521	669.073
410.61105	665.494
410.62689	649.832
410.64273	636.355
410.65857	635.817
410.67441	640.164
410.69025	635.767
410.70609	628.401
410.72192	627.073
410.73776	626.905
410.7536	635.068
410.76944	650.305
410.78528	660.762
410.80112	669.147
410.81696	671.918
410.83279	671.916
410.84863	673.298
410.86447	665.705
410.88028	654.245
410.89612	645.196
410.91196	640.885
410.9278	639.682
410.94363	641.677
410.95947	641.388
410.97531	639.949
410.99115	650.178
411.00699	667.557
411.02283	670.507
411.03867	664.583
411.0545	656.194
411.07034	641.942
411.08618	637.345
411.10202	633.611
411.11786	635.708
411.1337	648.545
411.14954	663.147
411.16537	663.321
411.18121	657.237
411.19705	655.188
411.21289	650.296
411.22873	640.773
411.24457	637.242
411.26041	640.116
411.27621	639.191
411.29205	634.571
411.30789	638.76
411.32373	643.549
411.33957	647.975
411.35541	648.977
411.37125	643.516
411.38708	636.299
411.40292	627.415
411.41876	630.102
411.4346	637.435
411.45044	638.344
411.46628	638.931
411.48212	645.032
411.49796	647.672
411.51379	650.156
411.52963	657.756
411.54547	664.27
411.56131	662.47
411.57715	660.123
411.59299	662.562
411.60883	653.153
411.62466	641.611
411.6405	636.608
411.65634	639.708
411.67215	645.492
411.68799	643.776
411.70383	642.113
411.71967	643.885
411.7355	643.418
411.75134	646.062
411.76718	648.351
411.78302	651.744
411.79886	663.988
411.8147	667.661
411.83054	658.576
411.84637	647.146
411.86221	642.067
411.87805	639.092
411.89389	641.513
411.90973	650.18
411.92557	647.656
411.94141	640.38
411.95724	643.822
411.97308	650.8
411.98892	651.109
412.00476	651.436
412.0206	656.057
412.03644	659.752
412.05228	653.662
412.06808	647.793
412.08392	646.723
412.09976	641.667
412.1156	637.591
412.13144	638.41
412.14728	639.945
412.16312	639.81
412.17896	649.696
412.19479	661.166
412.21063	661.523
412.22647	656.079
412.24231	648.67
412.25815	644.104
412.27399	639.35
412.28983	631.27
412.30566	632.626
412.3215	643.69
412.33734	654.849
412.35318	661.253
412.36902	658.46
412.38486	651.448
412.4007	645.469
412.41653	638.488
412.43237	626.831
412.44821	613.011
412.46402	605.984
412.47986	605.174
412.4957	610.992
412.51154	617.416
412.52737	619.024
412.54321	618.366
412.55905	623.762
412.57489	626.601
412.59073	621.519
412.60657	610.466
412.62241	605.04
412.63824	601.068
412.65408	593.156
412.66992	586.442
412.68576	588.089
412.7016	593.738
412.71744	596.688
412.73328	595.21
412.74911	591.214
412.76495	587.01
412.78079	583.86
412.79663	587.498
412.81247	602.204
412.82831	608.238
412.84415	605.057
412.85995	600.946
412.87579	604.328
412.89163	613.022
412.90747	610.476
412.92331	603.781
412.93915	601.371
412.95499	603.155
412.97083	607.169
412.98666	608.067
413.0025	606.24
413.01834	602.679
413.03418	602.623
413.05002	605.51
413.06586	602.02
413.0817	594.405
413.09753	590.733
413.11337	591.356
413.12921	596.148
413.14505	603.754
413.16089	608.77
413.17673	607.458
413.19257	604.374
413.2084	601.775
413.22424	603.672
413.24008	609.042
413.25589	609.063
413.27173	607.415
413.28757	610.352
413.30341	606.974
413.31924	602.253
413.33508	603.959
413.35092	606.179
413.36676	602.184
413.3826	601.748
413.39844	604.042
413.41428	598.965
413.43011	594.353
413.44595	597.265
413.46179	601.079
413.47763	603.83
413.49347	602.622
413.50931	599.851
413.52515	598.507
413.54099	595.456
413.55682	593.905
413.57266	596.163
413.5885	601.818
413.60434	599.706
413.62018	598.265
413.63602	604.009
413.65182	607.124
413.66766	607.35
413.6835	604.791
413.69934	602.487
413.71518	608.293
413.73102	611.462
413.74686	612.501
413.7627	612.003
413.77853	603.869
413.79437	598.142
413.81021	596.879
413.82605	590.671
413.84189	587.662
413.85773	594.164
413.87357	596.966
413.8894	596.913
413.90524	603.359
413.92108	610.123
413.93692	602.844
413.95276	591.213
413.9686	589.467
413.98444	596.242
414.00027	603.945
414.01611	610.439
414.03195	611.066
414.04776	604.759
414.0636	600.753
414.07944	600.946
414.09528	601.235
414.11111	605.995
414.12695	607.358
414.14279	601.273
414.15863	598.189
414.17447	597.565
414.19031	596.476
414.20615	595.677
414.22198	591.86
414.23782	587.403
414.25366	586.773
414.2695	590.68
414.28534	599.075
414.30118	608.364
414.31702	618.769
414.33286	619.083
414.34869	614.616
414.36453	613.815
414.38037	610.39
414.39621	612.772
414.41205	610.824
414.42789	601.716
414.44373	593.989
414.45953	593.326
414.47537	597.98
414.49121	599.259
414.50705	597.957
414.52289	599.138
414.53873	602.489
414.55457	606.44
414.5704	606.43
414.58624	599.231
414.60208	594.387
414.61792	596.397
414.63376	600.172
414.6496	599.987
414.66544	599.78
414.68127	601.831
414.69711	603.68
414.71295	606.713
414.72879	607.24
414.74463	600.094
414.76047	600.205
414.77631	606.023
414.79214	605.794
414.80798	601.871
414.82382	601.739
414.83966	599.529
414.85547	594.21
414.87131	592.535
414.88715	596.336
414.90298	600.46
414.91882	605.703
414.93466	608.305
414.9505	605.054
414.96634	600.539
414.98218	598.602
414.99802	597.239
415.01385	595.732
415.02969	596.378
415.04553	595.199
415.06137	594.261
415.07721	595.982
415.09305	594.239
415.10889	590.053
415.12473	588.441
415.14056	590.485
415.1564	593.931
415.17224	593.88
415.18808	590.465
415.20392	589.52
415.21976	591.096
415.2356	596.3
415.2514	604.004
415.26724	605.618
415.28308	601.905
415.29892	595.835
415.31476	590.214
415.3306	591.578
415.34644	598.948
415.36227	604.485
415.37811	600.747
415.39395	595.521
415.40979	592.667
415.42563	589.57
415.44147	586.518
415.45731	586.117
415.47314	588.351
415.48898	594.432
415.50482	600.255
415.52066	599.531
415.5365	595.007
415.55234	595.601
415.56818	603.913
415.58401	604.449
415.59985	599.737
415.61569	598.382
415.63153	594.317
415.64734	587.761
415.66318	594.705
415.67902	604.407
415.69485	606.607
415.71069	607.327
415.72653	605.654
415.74237	594.701
415.75821	585.125
415.77405	582.776
415.78989	584.257
415.80573	588.789
415.82156	591.839
415.8374	592.115
415.85324	590.014
415.86908	591.831
415.88492	598.187
415.90076	598.486
415.9166	592.095
415.93243	592.58
415.94827	598.879
415.96411	608.877
415.97995	617.985
415.99579	616.064
416.01163	610.049
416.02747	604.884
416.04327	597.942
416.05911	592.568
416.07495	590.046
416.09079	591.273
416.10663	593.669
416.12247	590.486
416.13831	588.267
416.15414	588.674
416.16998	592.778
416.18582	599.71
416.20166	602.746
416.2175	601.671
416.23334	598.397
416.24918	601.205
416.26501	600.641
416.28085	594.133
416.29669	600.14
416.31253	609.367
416.32837	613.687
416.34421	612.175
416.36005	607.367
416.37589	603.841
416.39172	605.392
416.40756	606.443
416.4234	606.61
416.43921	606.683
416.45505	603.608
416.47089	599.856
416.48672	598.041
