Date and Time:                Fri Apr 13 12:59:06.838 2018
Software Version:             4.30.30034.0
Temperature (C):              -30
Model:                        DH334T-18U-03
Data Type:                    Counts
Acquisition Mode:             Accumulate
Trigger Mode:                 Internal
Exposure Time (secs):         2
Accumulate Cycle Time (secs): 2
Frequency (Hz):               0.5
Number of Accumulations:      10
Readout Mode:                 Full Vertical Binning
Horizontal binning:           1
Extended Dynamic Range:       off
Horizontally flipped:         true
Vertical Shift Speed (usecs): 6.5
Pixel Readout Rate (MHz):     0.05
Clock Amplitude:              Normal
Serial Number:                5999
Pre-Amplifier Gain:           1.000000
Intelligate:                  off
Insertion delay:              normal
Gain level:                   500
Integrate on chip:            off
PIV Mode:                     off
Gate Mode:                    Fire only
Gate Width (nsecs):           0
Gate Delay (nsecs):           0
Spurious Noise Filter Mode:   No Filter
Photon counted:               false
Data Averaging Filter Mode:   No Filter
SR750:
Serial Number:                SR-1311
Wavelength (nm):              474.998
Grating Groove Density (l/mm):1199.66
Grating Blaze:                500
Output Flipper Port:          Direct
Accessory Output Port 1:      Off
Accessory Output Port 2:      Off
Accessory Output Port 3:      Off
Accessory Input Port:         On



460	8428
460.00394	8433.78
460.0079	8439.6
460.01187	8445.42
460.01584	8431.98
460.01978	8388.06
460.02374	8343.81
460.02771	8299.94
460.03168	8287.52
460.03561	8285.6
460.03958	8283.66
460.04355	8287.33
460.04752	8314.09
460.05145	8341.87
460.05542	8369.61
460.05939	8376.67
460.06335	8364.75
460.06729	8352.93
460.07126	8336.05
460.07523	8289.36
460.07919	8234.04
460.08313	8179.15
460.0871	8151.13
460.09106	8174.03
460.09503	8200.36
460.09897	8225.79
460.10294	8235
460.1069	8235
460.11084	8235
460.11481	8239.23
460.11877	8260.01
460.12274	8283.57
460.12668	8306.95
460.13065	8315.48
460.13461	8305.6
460.13858	8295.64
460.14252	8285.76
460.14648	8298.6
460.15045	8316.34
460.15442	8334.08
460.15836	8343.8
460.16232	8323.56
460.16629	8303.33
460.17026	8283.09
460.17419	8292.57
460.17816	8322.23
460.18213	8351.88
460.1861	8380.03
460.19003	8369.03
460.194	8355.75
460.19797	8342.48
460.2019	8335.77
460.20587	8340.75
460.20984	8345.74
460.21381	8350.85
460.21774	8358.75
460.22171	8367.9
460.22568	8377.05
460.22964	8384.3
460.23358	8384.69
460.23755	8384.41
460.24152	8384.54
460.24548	8406.38
460.24942	8449.47
460.25339	8492.9
460.25735	8528.84
460.26132	8519.23
460.26526	8495.03
460.26923	8470.64
460.27319	8461.16
460.27716	8479.9
460.2811	8500.8
460.28506	8521.76
460.28903	8522.03
460.293	8511.5
460.29694	8501.05
460.3009	8497.92
460.30487	8531.22
460.30881	8569.37
460.31277	8607.82
460.31674	8625.54
460.32071	8615.01
460.32465	8604.56
460.32861	8594.03
460.33258	8572.97
460.33655	8549.41
460.34048	8526.03
460.34445	8515.26
460.34842	8558.23
460.35239	8601.19
460.35632	8643.82
460.36029	8657.69
460.36426	8650.22
460.36823	8642.76
460.37216	8635.63
460.37613	8632.62
460.3801	8630.13
460.38406	8627.63
460.388	8622.53
460.39197	8612.27
460.39594	8602.02
460.39987	8591.54
460.40384	8575.97
460.40781	8557.96
460.41177	8539.94
460.41571	8526.83
460.41968	8529.83
460.42365	8535.1
460.42761	8540.48
460.43155	8564.92
460.43552	8609.46
460.43948	8653.99
460.44345	8693.88
460.44739	8701.35
460.45135	8698.3
460.45532	8695.25
460.45929	8686.43
460.46323	8665.89
460.46719	8644.27
460.47116	8622.65
460.47513	8651.18
460.47906	8706.74
460.48303	8762.73
460.487	8817.42
460.49097	8863.47
460.4949	8908.21
460.49887	8953.3
460.50284	8983.28
460.50677	8991.25
460.51074	8999.29
460.51471	9007.33
460.51868	9007.24
460.52261	9005.04
460.52658	9002.83
460.53055	9007.67
460.53452	9045.37
460.53845	9082.77
460.54242	9120.47
460.54639	9135.6
460.55035	9133.1
460.55429	9130.63
460.55826	9121.32
460.56223	9049.23
460.56619	8965.97
460.57013	8883.36
460.5741	8816.43
460.57806	8783.73
460.58203	8751.02
460.58597	8720.04
460.58994	8710.18
460.5939	8711.84
460.59784	8713.49
460.60181	8713.05
460.60577	8705.61
460.60974	8697.02
460.61368	8688.49
460.61765	8718.33
460.62161	8788.58
460.62558	8859.39
460.62952	8924.59
460.63348	8945.92
460.63745	8952.85
460.64142	8959.78
460.64536	8962.3
460.64932	8954.7
460.65329	8946.39
460.65726	8938.07
460.66119	8942.6
460.66516	8954.79
460.66913	8966.99
460.6731	8977.43
460.67703	8967.83
460.681	8956.74
460.68497	8945.65
460.68893	8929.71
460.69287	8906.65
460.69684	8883.42
460.70081	8860.18
460.70474	8831.97
460.70871	8802.04
460.71268	8772.1
460.71664	8747.36
460.72058	8749.56
460.72455	8751.78
460.72852	8753.99
460.73248	8758.48
460.73642	8764.81
460.74039	8771.18
460.74435	8778.77
460.74832	8795.29
460.75226	8813.71
460.75623	8832.29
460.76019	8853.03
460.76416	8878.11
460.7681	8903.08
460.77206	8927.02
460.77603	8933.31
460.78	8929.43
460.78394	8925.58
460.7879	8918.15
460.79187	8898.72
460.79581	8877.26
460.79977	8855.64
460.80374	8848.72
460.80771	8857.77
460.81165	8867.13
460.81561	8875.38
460.81958	8868.38
460.82355	8857.02
460.82748	8845.74
460.83145	8836.47
460.83542	8832.92
460.83939	8829.6
460.84332	8826.3
460.84729	8789.96
460.85126	8732.31
460.85522	8674.66
460.85916	8619.53
460.86313	8631.58
460.8671	8646.27
460.87106	8660.96
460.875	8665.72
460.87897	8654.35
460.88293	8642.99
460.8869	8631.62
460.89084	8610.21
460.89481	8585.54
460.89877	8560.88
460.90271	8535.59
460.90668	8506.08
460.91064	8476.48
460.91461	8446.96
460.91855	8437.06
460.92252	8444.82
460.92648	8452.58
460.93045	8459.05
460.93439	8457.48
460.93835	8453.6
460.94232	8449.72
460.94629	8440.91
460.95023	8423
460.95419	8404.43
460.95816	8387.41
460.96213	8398.41
460.96606	8425.09
460.97003	8451.97
460.974	8474.1
460.97797	8478.78
460.9819	8480.43
460.98587	8482.09
460.98984	8481.46
460.99377	8478.2
460.99774	8474.88
461.00171	8471.93
461.00568	8480.21
461.00961	8491.21
461.01358	8502.3
461.01755	8508.15
461.02151	8496.18
461.02545	8484.07
461.02942	8471.88
461.03339	8465.34
461.03735	8462.57
461.04129	8459.81
461.04526	8457.04
461.04922	8459.46
461.05319	8461.95
461.05713	8464.43
461.0611	8471.62
461.06506	8486.83
461.06903	8502.04
461.07297	8516.2
461.07693	8479.01
461.0809	8422.75
461.08487	8366.48
461.08881	8321.31
461.09277	8318.94
461.09674	8319.77
461.10068	8320.58
461.10464	8320
461.10861	8318.06
461.11258	8316.12
461.11652	8317.15
461.12048	8336.45
461.12445	8361.4
461.12842	8386.35
461.13235	8415.13
461.13632	8451.71
461.14029	8488.86
461.14426	8525.85
461.14819	8558.18
461.15216	8588.33
461.15613	8618.47
461.1601	8646.67
461.16403	8666.43
461.168	8685
461.17197	8703.57
461.17593	8704.28
461.17987	8682.27
461.18384	8660.1
461.18781	8637.92
461.19174	8634.9
461.19571	8636.01
461.19968	8637.12
461.20364	8635.41
461.20758	8623.03
461.21155	8610.56
461.21552	8598.09
461.21948	8593.33
461.22342	8593.88
461.22739	8594.43
461.23135	8595.28
461.23532	8602.58
461.23926	8610.28
461.24323	8618.04
461.24719	8612.6
461.25116	8583.83
461.2551	8555.29
461.25906	8527
461.26303	8509.58
461.267	8496.83
461.27094	8484.18
461.2749	8473.55
461.27887	8470.51
461.28284	8468.29
461.28677	8466.06
461.29074	8461.9
461.29471	8455.81
461.29865	8449.75
461.30261	8443.9
461.30658	8439.54
461.31055	8435.66
461.31448	8431.81
461.31845	8455.01
461.32242	8529.52
461.32639	8608.24
461.33032	8686.36
461.33429	8712.27
461.33826	8711.16
461.34222	8710.05
461.34616	8698.46
461.35013	8630.99
461.3541	8555.88
461.35806	8480.76
461.362	8451.6
461.36597	8483.76
461.36993	8515.91
461.3739	8548.06
461.37784	8605.94
461.38181	8670.25
461.38577	8734.55
461.38971	8777.42
461.39368	8732.79
461.39764	8688.16
461.40161	8643.54
461.40555	8651.23
461.40952	8696.68
461.41348	8742.14
461.41745	8784.44
461.42139	8788.73
461.42535	8788.46
461.42932	8788.18
461.43329	8778.31
461.43723	8751.14
461.44119	8723.76
461.44516	8697.03
461.44913	8679.88
461.45306	8667.51
461.45703	8655.03
461.461	8645.58
461.46497	8645.85
461.4689	8647.51
461.47287	8649.08
461.47684	8622.14
461.4808	8566.43
461.48474	8511.14
461.48871	8461.33
461.49268	8451.94
461.49661	8455.24
461.50058	8458.57
461.50455	8454.02
461.50851	8433.56
461.51245	8412.1
461.51642	8390.48
461.52039	8400.94
461.52435	8428.38
461.52829	8455.61
461.53226	8482.89
461.53622	8509.06
461.54019	8535.11
461.54413	8560.97
461.5481	8570.15
461.55206	8556.32
461.55603	8542.49
461.55997	8528.77
461.56393	8551.72
461.5679	8583.88
461.57187	8616.03
461.57581	8648.81
461.57977	8685.67
461.58374	8722.54
461.58768	8759.12
461.59164	8761.27
461.59561	8737.16
461.59958	8713.04
461.60352	8692.67
461.60748	8702.54
461.61145	8717.79
461.61542	8733.03
461.61935	8740.84
461.62332	8734.47
461.62729	8728.09
461.63126	8721.43
461.63519	8711.18
461.63916	8698.99
461.64313	8686.79
461.64709	8672.71
461.65103	8652.97
461.655	8632.18
461.65897	8611.39
461.66293	8603.48
461.66687	8608.02
461.67084	8612.72
461.6748	8617.42
461.67877	8622.13
461.68271	8626.81
461.68668	8631.52
461.69064	8648.03
461.69458	8690.26
461.69855	8734.33
461.70251	8778.41
461.70648	8832.87
461.71042	8892.55
461.71439	8952.7
461.71835	9006.18
461.72232	8995.86
461.72626	8981.28
461.73022	8966.59
461.73419	8973.31
461.73816	9010.18
461.7421	9046.76
461.74606	9083.63
461.75003	9074.37
461.754	9053.58
461.75793	9032.95
461.7619	9014.67
461.76587	9007.46
461.76984	9000.26
461.77377	8993.1
461.77774	8943.77
461.78171	8862.55
461.78564	8781.96
461.78961	8705.86
461.79358	8664.55
461.79755	8630.53
461.80148	8596.77
461.80545	8566.41
461.80942	8543.02
461.81339	8519.73
461.81732	8497.51
461.82129	8486.63
461.82526	8481.92
461.82922	8477.21
461.83316	8471.53
461.83713	8462.63
461.84109	8453.21
461.84506	8443.78
461.849	8428.97
461.85297	8408.55
461.85693	8388.04
461.8609	8368.85
461.86484	8363.07
461.8688	8360.86
461.87277	8358.64
461.87674	8364.96
461.88068	8391.75
461.88464	8419.47
461.88861	8447.19
461.89255	8438.42
461.89651	8409.31
461.90048	8380.21
461.90445	8354.44
461.90839	8388.02
461.91235	8423.22
461.91632	8458.42
461.92029	8504.33
461.92422	8564.84
461.92819	8625.82
461.93216	8686.8
461.93613	8727.77
461.94006	8763.45
461.94403	8799.4
461.948	8839.67
461.95197	8899.14
461.9559	8958.27
461.95987	9017.7
461.96384	9034.82
461.9678	9018.46
461.97174	9002.23
461.97571	8990.68
461.97968	9007.55
461.98361	9031.21
461.98758	9055.05
461.99155	9057.3
461.99551	9021.57
461.99945	8984.71
462.00342	8947.61
462.00739	8911.02
462.01135	8874.71
462.01529	8838.68
462.01926	8806.62
462.02322	8788.32
462.02719	8772.24
462.03113	8756.29
462.0351	8737.35
462.03906	8715.49
462.04303	8693.59
462.04697	8671.94
462.05093	8651.41
462.0549	8631.18
462.05887	8610.94
462.06281	8601.39
462.06677	8621.72
462.07074	8642.23
462.07471	8662.74
462.07864	8690
462.08261	8721.32
462.08658	8752.64
462.09052	8783.25
462.09448	8794.06
462.09845	8804.87
462.10242	8815.68
462.10635	8858.2
462.11032	8946.99
462.11429	9035.77
462.11826	9122.41
462.12219	9141.26
462.12616	9139.04
462.13013	9136.83
462.13409	9133.32
462.13803	9125.28
462.142	9116.96
462.14597	9108
462.14993	9069.67
462.15387	9007.23
462.15784	8944.31
462.1618	8890.55
462.16577	8885.61
462.16971	8893.58
462.17368	8901.62
462.17764	8894.84
462.18158	8863.72
462.18555	8831.02
462.18951	8798.84
462.19348	8776.51
462.19742	8759.18
462.20139	8741.72
462.20535	8718.73
462.20932	8676.3
462.21326	8631.47
462.21722	8586.29
462.22119	8542.18
462.22516	8499.22
462.2291	8456.58
462.23306	8413.79
462.23703	8377.16
462.241	8341.68
462.24493	8306.47
462.2489	8282.74
462.25287	8293.55
462.25684	8304.36
462.26077	8315.09
462.26474	8326.79
462.26871	8338.98
462.27267	8351.18
462.27661	8363.28
462.28058	8375.48
462.28455	8387.67
462.28848	8399.78
462.29245	8412.88
462.29642	8427.29
462.30038	8441.7
462.30432	8456.57
462.30829	8481.84
462.31226	8510.67
462.31622	8539.49
462.32016	8567.58
462.32413	8594.25
462.32809	8620.8
462.33206	8647.26
462.336	8670.05
462.33997	8690.01
462.34393	8709.97
462.3479	8729.05
462.35184	8743.49
462.3558	8756.79
462.35977	8770.1
462.36374	8779.44
462.36768	8782.3
462.37164	8784.8
462.37561	8785.73
462.37955	8740.14
462.38351	8672.5
462.38748	8604.87
462.39145	8557.27
462.39539	8587.3
462.39935	8626.93
462.40332	8666.57
462.40729	8686.6
462.41122	8685.77
462.41519	8684.94
462.41916	8684.11
462.42313	8708.58
462.42706	8736.63
462.43103	8764.9
462.435	8784.59
462.43896	8779.05
462.4429	8773.55
462.44687	8768
462.45084	8756.44
462.4548	8741.48
462.45874	8726.62
462.46271	8711.13
462.46667	8690.16
462.47064	8668.82
462.47458	8647.64
462.47855	8602.79
462.48251	8523.79
462.48645	8445.41
462.49042	8369.84
462.49438	8337.92
462.49835	8322.68
462.50229	8307.55
462.50626	8289.69
462.51022	8264.33
462.51419	8238.28
462.51813	8212.67
462.52209	8196.02
462.52606	8187.15
462.53003	8178.28
462.53397	8174.21
462.53793	8194.44
462.5419	8221.33
462.54587	8248.21
462.5498	8257.02
462.55377	8236.86
462.55774	8214.96
462.56171	8193.27
462.56564	8206.63
462.56961	8234.07
462.57358	8261.51
462.57751	8283.19
462.58148	8279.9
462.58545	8274.36
462.58942	8268.81
462.59335	8273.79
462.59732	8289.87
462.60129	8305.94
462.60526	8322.02
462.60919	8326.41
462.61316	8329.18
462.61713	8331.95
462.62109	8337.92
462.62503	8352.77
462.629	8367.74
462.63297	8382.7
462.63693	8430.81
462.64087	8496.54
462.64484	8562.79
462.6488	8621.72
462.65277	8626.71
462.65671	8626.44
462.66068	8626.16
462.66464	8656.74
462.66861	8730.75
462.67255	8804.19
462.67651	8876.01
462.68048	8926.71
462.68442	8968.51
462.68839	9010.65
462.69235	9056.69
462.69632	9112.83
462.70026	9169.64
462.70422	9226.35
462.70819	9234.72
462.71216	9203.96
462.71609	9173.42
462.72006	9140.54
462.72403	9095.63
462.728	9047.68
462.73193	9000.09
462.7359	8958.49
462.73987	8927.79
462.74384	8897.58
462.74777	8867.6
462.75174	8805.66
462.75571	8731.1
462.75967	8656.53
462.76361	8592.81
462.76758	8585.43
462.77155	8581.27
462.77548	8577.14
462.77945	8577.15
462.78342	8581.58
462.78738	8586.02
462.79132	8590.42
462.79529	8557.75
462.79926	8519.5
462.80322	8481.25
462.80716	8446.1
462.81113	8418.94
462.81509	8391.78
462.81906	8364.61
462.823	8345.44
462.82697	8330.48
462.83093	8315.51
462.8349	8305.46
462.83884	8322.55
462.8428	8343.62
462.84677	8364.68
462.85074	8392.08
462.85468	8428.12
462.85864	8464.43
462.86261	8498.56
462.86658	8513.1
462.87051	8519.43
462.87448	8525.8
462.87845	8534.87
462.88239	8550.57
462.88635	8567.21
462.89032	8583.84
462.89429	8612.16
462.89822	8649
462.90219	8686.14
462.90616	8726.91
462.91013	8789.78
462.91406	8857.16
462.91803	8925.08
462.922	8976.29
462.92596	8997.83
462.9299	9018.45
462.93387	9039.24
462.93784	9069.45
462.9418	9103.27
462.94574	9136.83
462.94971	9165.65
462.95367	9158.4
462.95764	9150.64
462.96158	9142.94
462.96555	9126.45
462.96951	9100.94
462.97345	9075.64
462.97742	9050.14
462.98138	9049.67
462.98535	9052.72
462.98929	9055.75
462.99326	9055.03
462.99722	9043.66
463.00119	9032.3
463.00513	9021.56
463.00909	9064.1
463.01306	9137
463.01703	9209.9
463.02097	9275.82
463.02493	9310.86
463.0289	9340.79
463.03287	9370.79
463.0368	9424.04
463.04077	9510.8
463.04474	9597.56
463.04871	9683.28
463.05264	9759.76
463.05661	9833.22
463.06058	9906.67
463.06454	9970.48
463.06848	10010.7
463.07245	10048.4
463.07642	10086.1
463.08035	10098.1
463.08432	10091.6
463.08829	10084.9
463.09225	10080.1
463.09619	10089.1
463.10016	10100.7
463.10413	10112.4
463.10809	10077.4
463.11203	9955.28
463.116	9832.21
463.11996	9709.13
463.12393	9587.48
463.12787	9467.28
463.13184	9346.15
463.1358	9233.46
463.13977	9185.4
463.14371	9137.71
463.14767	9089.66
463.15164	9029.97
463.15561	8959.02
463.15955	8888.6
463.16351	8818.72
463.16748	8779.33
463.17142	8745.22
463.17538	8710.85
463.17935	8672.49
463.18332	8623.71
463.18726	8575.3
463.19122	8526.77
463.19519	8485.25
463.19916	8447.83
463.20309	8410.69
463.20706	8379.97
463.21103	8376.74
463.215	8378.4
463.21893	8380.05
463.2229	8387.15
463.22687	8401.23
463.23083	8415.36
463.23477	8429.26
463.23874	8442.17
463.24271	8454.64
463.24667	8467.12
463.25061	8491.7
463.25458	8546.19
463.25854	8603.84
463.26251	8661.5
463.26645	8717.57
463.27042	8773.29
463.27438	8829
463.27832	8886.68
463.28229	8964.99
463.28625	9046.48
463.29022	9127.97
463.29416	9194.22
463.29813	9234.41
463.30209	9274.61
463.30606	9314.8
463.31	9372.9
463.31396	9437.76
463.31793	9502.62
463.3219	9558.71
463.32584	9556.51
463.3298	9554.29
463.33377	9552.07
463.33774	9532
463.34167	9495.42
463.34564	9458.55
463.34961	9424.1
463.35358	9420.99
463.35751	9424.29
463.36148	9427.62
463.36545	9421.16
463.36938	9390.36
463.37335	9359.31
463.37732	9327.56
463.38129	9282.2
463.38522	9229.11
463.38919	9175.62
463.39316	9117.03
463.39713	9039.12
463.40106	8958.25
463.40503	8876.76
463.409	8823.9
463.41296	8805.48
463.4169	8787.88
463.42087	8768.38
463.42484	8732.09
463.4288	8689.68
463.43274	8647.6
463.43671	8606.75
463.44067	8569.81
463.44464	8533.22
463.44858	8496.92
463.45255	8453.76
463.45651	8406.09
463.46048	8358.41
463.46442	8315.71
463.46838	8323
463.47235	8336.3
463.47629	8349.5
463.48026	8344.37
463.48422	8306.67
463.48819	8268.98
463.49213	8231.57
463.49609	8212.9
463.50006	8200.7
463.50403	8188.51
463.50797	8179.27
463.51193	8188.99
463.5159	8198.72
463.51987	8208.44
463.5238	8209.08
463.52777	8201.6
463.53174	8194.12
463.53571	8188.49
463.53964	8199.59
463.54361	8214.55
463.54758	8229.52
463.55154	8245.17
463.55548	8262.21
463.55945	8279.39
463.56342	8295.36
463.56735	8292.43
463.57132	8278.29
463.57529	8264.16
463.57925	8257.32
463.58319	8276.01
463.58716	8299.57
463.59113	8323.13
463.59509	8343.21
463.59903	8359.25
463.603	8375.33
463.60696	8391.33
463.61093	8406.55
463.61487	8421.4
463.61884	8436.37
463.6228	8460.16
463.62677	8506.31
463.63071	8553.62
463.63467	8601.3
463.63864	8666.66
463.64261	8743.44
463.64655	8819.63
463.65051	8893.21
463.65448	8915.15
463.65845	8933.45
463.66238	8951.6
463.66635	8959.66
463.67032	8950.79
463.67426	8941.99
463.67822	8933.12
463.68219	8998.13
463.68616	9086.27
463.69009	9173.74
463.69406	9250.54
463.69803	9261.07
463.702	9271.61
463.70593	9282.06
463.7099	9289.21
463.71387	9293.36
463.71783	9297.52
463.72177	9301.21
463.72574	9301.75
463.72971	9301.47
463.73367	9301.19
463.73761	9289.45
463.74158	9254.97
463.74554	9219.76
463.74951	9181.44
463.75345	9099.16
463.75742	8991.06
463.76138	8882.96
463.76532	8786.23
463.76929	8724.9
463.77325	8670.01
463.77722	8615.13
463.78116	8576.13
463.78513	8553.59
463.78909	8531.42
463.79306	8508.53
463.797	8476.68
463.80096	8442.03
463.80493	8407.39
463.8089	8366.23
463.81284	8307.99
463.8168	8248.68
463.82077	8189.36
463.82474	8166.31
463.82867	8165.21
463.83264	8164.1
463.83661	8163.37
463.84058	8172.22
463.84451	8181.29
463.84848	8190.44
463.85245	8202.74
463.85641	8219.93
463.86035	8236.98
463.86432	8254.17
463.86829	8268.34
463.87222	8281.54
463.87619	8294.84
463.88016	8306.03
463.88412	8307.61
463.88806	8308.99
463.89203	8310.37
463.896	8309
463.89996	8305.4
463.9039	8301.83
463.90787	8307.73
463.91183	8370.84
463.9158	8448.45
463.91974	8525.46
463.92371	8608.88
463.92767	8702.69
463.93164	8796.93
463.93558	8886.36
463.93954	8915.84
463.94351	8912.79
463.94748	8909.74
463.95142	8913.78
463.95538	8941.52
463.95935	8973.12
463.96329	9004.47
463.96725	9013.18
463.97122	8997.67
463.97519	8981.87
463.97913	8966.49
463.98309	8955.88
463.98706	8946.46
463.99103	8937.03
463.99496	8920.32
463.99893	8882.33
464.0029	8844.08
464.00687	8805.83
464.0108	8782.56
464.01477	8767.59
464.01874	8752.62
464.02271	8737.64
464.02664	8722.21
464.03061	8706.65
464.03458	8691.09
464.03854	8679.93
464.04248	8674.98
464.04645	8669.99
464.05042	8664.48
464.05438	8638.72
464.05832	8607.37
464.06229	8575.77
464.06625	8552.3
464.07019	8558.48
464.07416	8565.69
464.07813	8572.76
464.08209	8573.48
464.08603	8569.07
464.09	8564.64
464.09396	8559.73
464.09793	8552.33
464.10187	8544.36
464.10583	8536.32
464.1098	8523.9
464.11377	8504.29
464.11771	8484.48
464.12167	8464.49
464.12564	8443.97
464.12961	8423.18
